Time (sec)	T1 (C)	T2 (C)	T3 (C)	T4 (C)	P1 (kPa)	P2 (kPa)	P3 (kPa)	P4 (kPa)	Fuel Flow  (L/hr)	RPM	Thrust (N)
329.625	23.726	23.440	23.152	23.752	0.016	0.002	0.083	0.025	0.009	2.032	0.045
329.824	23.693	23.560	23.542	24.211	0.017	0.009	0.085	0.023	0.009	6.050	0.966
330.025	23.763	23.501	22.754	23.825	0.016	-0.011	0.071	0.023	0.010	5.638	1.016
330.225	23.688	23.624	23.806	23.646	0.017	-0.004	0.090	0.023	0.009	4.757	1.147
330.426	23.732	23.668	22.941	24.150	0.017	0.011	0.072	0.024	0.009	6.705	1.087
330.627	23.760	23.500	22.924	23.631	0.016	-0.012	0.079	0.024	0.010	5.573	0.544
330.826	23.763	23.501	23.377	23.937	0.017	0.001	0.083	0.023	0.010	6.196	1.301
331.026	23.756	23.565	23.402	23.625	0.017	-0.013	0.086	0.023	0.010	5.961	1.136
331.227	23.685	23.618	22.945	24.142	0.017	0.001	0.086	0.024	0.009	5.040	0.939
331.427	23.783	23.561	23.171	23.610	0.016	-0.002	0.077	0.025	0.010	7.368	1.125
331.628	23.650	23.483	23.562	24.096	0.016	-0.004	0.089	0.024	0.009	2.282	0.253
331.829	23.619	23.573	23.460	24.138	0.017	0.008	0.094	0.025	0.009	1.506	0.418
332.029	23.722	23.578	22.923	23.793	0.017	0.003	0.082	0.023	0.010	5.751	0.966
332.229	23.632	23.498	22.924	24.287	0.017	-0.015	0.086	0.023	0.009	2.743	0.391
332.429	23.742	23.534	23.085	23.366	0.016	-0.009	0.080	0.024	0.009	4.886	1.060
332.630	23.690	23.602	23.656	23.438	0.017	-0.005	0.092	0.022	0.009	4.862	1.410
332.830	23.775	23.546	23.426	23.505	0.017	-0.015	0.079	0.025	0.010	5.355	1.120
333.031	23.659	23.568	23.486	23.958	0.017	-0.008	0.086	0.022	0.009	4.280	0.939
333.230	23.642	23.580	23.653	23.946	0.017	-0.008	0.094	0.024	0.009	3.552	0.944
333.430	23.640	23.569	23.643	23.787	0.017	0.001	0.092	0.025	0.009	2.234	0.094
333.630	23.728	23.501	23.112	23.823	0.017	-0.002	0.076	0.023	0.009	5.864	1.213
333.831	23.715	23.479	23.821	23.897	0.016	0.003	0.084	0.025	0.009	1.296	0.237
334.031	23.761	23.559	24.050	23.546	0.017	-0.004	0.078	0.025	0.009	4.991	1.142
334.232	23.738	23.445	23.578	23.887	0.016	-0.010	0.071	0.024	0.009	3.334	0.144
334.434	23.656	23.585	23.331	23.475	0.017	0.015	0.093	0.024	0.009	3.334	0.703
334.634	23.694	23.583	23.394	23.734	0.017	0.000	0.088	0.025	0.009	3.059	0.796
334.836	23.735	23.655	22.987	23.559	0.017	0.003	0.088	0.024	0.009	5.929	1.268
335.036	23.811	23.519	23.721	23.736	0.017	-0.001	0.081	0.024	0.010	4.037	0.593
335.237	23.827	23.555	23.209	23.991	0.016	-0.004	0.088	0.024	0.010	4.692	0.665
335.436	23.757	23.557	23.559	24.128	0.017	-0.007	0.082	0.024	0.009	5.290	1.038
335.636	23.739	23.656	22.392	24.052	0.017	0.004	0.074	0.023	0.010	3.511	1.136
335.836	23.803	23.546	23.254	23.806	0.016	-0.012	0.083	0.023	0.010	5.509	0.747
336.037	23.757	23.623	23.106	24.113	0.017	0.006	0.082	0.022	0.010	4.514	0.900
336.237	23.738	23.632	23.326	23.754	0.017	0.002	0.078	0.024	0.010	5.387	0.928
336.436	23.780	23.497	23.028	23.449	0.016	-0.010	0.082	0.025	0.010	3.172	0.199
336.636	23.780	23.551	23.305	23.800	0.016	-0.012	0.081	0.024	0.009	4.538	0.462
336.837	23.725	23.625	23.078	23.941	0.017	-0.002	0.082	0.023	0.009	5.856	0.966
337.036	23.752	23.487	23.250	23.668	0.016	-0.004	0.081	0.025	0.009	2.646	0.182
337.237	23.678	23.695	23.184	23.806	0.017	0.003	0.079	0.024	0.009	4.425	1.010
337.436	23.763	23.470	23.392	23.841	0.016	-0.003	0.081	0.023	0.010	4.013	0.550
337.638	23.649	23.606	23.626	23.809	0.017	0.000	0.081	0.022	0.009	4.288	0.983
337.838	23.750	23.617	23.408	23.409	0.017	-0.004	0.094	0.023	0.009	6.317	1.268
338.039	23.686	23.478	23.335	23.532	0.016	0.003	0.090	0.022	0.009	0.827	-0.322
338.238	23.733	23.584	22.934	23.316	0.017	0.003	0.080	0.023	0.009	4.902	1.153
338.439	23.760	23.539	22.919	23.799	0.017	0.006	0.071	0.022	0.009	5.646	1.038
338.640	23.739	23.536	23.333	23.546	0.017	-0.007	0.087	0.023	0.010	5.032	0.725
338.839	23.713	23.471	23.574	24.299	0.016	0.003	0.083	0.024	0.009	-0.030	0.023
339.039	23.662	23.502	23.960	23.710	0.017	-0.011	0.076	0.024	0.009	0.334	0.188
339.239	23.666	23.672	23.043	23.660	0.017	0.004	0.083	0.022	0.009	4.902	0.785
339.439	23.683	23.641	23.601	23.361	0.017	0.005	0.069	0.023	0.009	2.614	0.868
339.639	23.744	23.489	23.428	23.894	0.016	0.005	0.080	0.022	0.009	1.822	0.210
339.841	23.672	23.606	23.795	24.073	0.017	0.001	0.084	0.023	0.009	1.288	0.253
340.040	23.717	23.576	23.681	23.538	0.017	0.005	0.095	0.023	0.009	3.843	1.219
340.241	23.710	23.480	23.739	23.889	0.016	-0.002	0.091	0.023	0.009	1.450	-0.026
340.440	23.706	23.632	23.070	23.890	0.016	-0.011	0.097	0.021	0.009	4.166	0.714
340.640	23.778	23.555	23.387	23.777	0.016	-0.000	0.092	0.024	0.009	5.581	0.517
340.840	23.713	23.651	23.582	23.574	0.017	-0.008	0.080	0.022	0.009	5.088	1.197
341.041	23.790	23.515	23.326	24.057	0.017	0.001	0.081	0.023	0.010	4.215	0.654
341.240	23.676	23.582	23.328	24.070	0.017	0.013	0.085	0.022	0.009	2.185	0.709
341.441	23.738	23.475	23.495	23.687	0.016	-0.009	0.081	0.023	0.009	1.870	0.237
341.640	23.757	23.463	22.790	23.692	0.016	-0.000	0.083	0.023	0.009	2.161	-0.202
341.841	23.767	23.597	22.798	23.910	0.017	0.002	0.072	0.022	0.009	5.153	1.142
342.041	23.792	23.510	23.472	23.825	0.017	-0.007	0.085	0.024	0.009	2.962	0.149
342.242	23.748	23.471	23.138	23.846	0.016	-0.000	0.095	0.024	0.009	2.840	-0.174
342.443	23.675	23.631	23.031	24.133	0.017	-0.004	0.090	0.024	0.009	3.358	0.676
342.643	23.694	23.566	23.639	24.051	0.017	-0.004	0.096	0.024	0.009	1.369	0.253
342.843	23.709	23.593	23.755	23.461	0.017	0.001	0.080	0.024	0.009	3.972	0.868
343.042	23.796	23.499	22.908	23.607	0.016	-0.007	0.091	0.025	0.009	2.784	-0.021
343.242	23.754	23.514	23.497	24.003	0.016	0.001	0.093	0.024	0.009	3.681	-0.114
343.442	23.710	23.617	23.315	24.271	0.017	-0.008	0.082	0.023	0.009	3.875	0.890
343.644	23.646	23.521	23.562	24.028	0.016	0.019	0.088	0.024	0.009	0.455	0.078
343.843	23.718	23.622	23.518	24.117	0.017	0.002	0.086	0.024	0.009	5.614	1.120
344.043	23.706	23.660	23.896	23.448	0.017	0.007	0.081	0.025	0.009	2.816	0.796
344.244	23.746	23.583	23.429	23.903	0.017	0.003	0.081	0.024	0.009	3.730	0.928
344.443	23.668	23.505	22.853	23.800	0.016	-0.002	0.079	0.023	0.009	0.552	-0.289
344.643	23.658	23.596	23.237	23.782	0.017	0.000	0.088	0.024	0.009	2.921	0.544
344.844	23.676	23.455	23.548	23.691	0.016	-0.011	0.082	0.023	0.009	1.142	-0.300
345.044	23.668	23.591	23.753	23.587	0.017	-0.001	0.087	0.024	0.009	4.061	0.950
345.246	23.703	23.429	23.210	23.654	0.016	0.001	0.081	0.025	0.009	1.053	-0.032
345.446	23.746	23.469	22.791	23.849	0.016	0.002	0.077	0.024	0.009	1.870	0.111
345.647	23.746	23.472	23.412	23.399	0.016	-0.005	0.083	0.024	0.010	2.137	0.380
345.847	23.655	23.610	23.366	23.419	0.017	0.005	0.076	0.024	0.009	2.096	0.994
346.047	23.736	23.533	23.669	23.858	0.016	0.005	0.085	0.023	0.009	2.468	0.116
346.247	23.658	23.636	22.781	24.019	0.017	0.018	0.081	0.022	0.009	1.911	0.741
346.448	23.770	23.501	23.000	23.739	0.016	-0.006	0.070	0.024	0.010	2.113	-0.037
346.649	23.752	23.447	22.838	24.156	0.016	-0.004	0.076	0.026	0.010	2.760	-0.202
346.848	23.788	23.491	22.996	23.434	0.017	-0.004	0.083	0.023	0.010	4.231	0.270
347.050	23.685	23.578	23.582	24.024	0.016	-0.000	0.077	0.023	0.009	0.568	0.385
347.249	23.807	23.522	23.320	23.648	0.016	-0.001	0.074	0.025	0.010	4.951	0.555
347.450	23.752	23.532	23.190	23.572	0.016	-0.009	0.075	0.024	0.010	2.105	-0.191
347.650	23.696	23.617	23.851	23.718	0.017	-0.000	0.077	0.023	0.009	2.258	0.621
347.852	23.799	23.580	23.099	23.916	0.017	-0.003	0.078	0.024	0.010	3.568	0.610
348.051	23.700	23.632	23.079	23.987	0.017	0.005	0.090	0.024	0.009	1.749	0.785
348.252	23.820	23.543	23.948	23.840	0.016	-0.001	0.080	0.024	0.010	4.207	0.528
348.451	23.738	23.481	23.039	23.667	0.016	-0.010	0.089	0.024	0.009	1.264	-0.081
348.651	23.751	23.613	23.633	24.105	0.017	0.011	0.083	0.023	0.010	5.120	0.966
348.853	23.670	23.610	23.190	23.971	0.016	0.009	0.096	0.025	0.010	1.870	0.440
349.053	23.709	23.621	23.292	23.904	0.017	0.003	0.081	0.024	0.009	3.641	1.317
349.253	23.694	23.657	23.038	24.122	0.017	0.001	0.097	0.025	0.009	2.679	1.081
349.453	23.747	23.673	22.774	23.061	0.016	-0.005	0.090	0.024	0.009	4.409	1.290
349.654	23.736	23.601	23.466	23.687	0.017	0.002	0.072	0.024	0.009	4.449	0.983
349.853	23.742	23.658	23.243	23.658	0.017	-0.002	0.080	0.024	0.009	3.762	1.109
350.054	23.791	23.546	23.053	23.717	0.016	-0.007	0.083	0.024	0.010	4.902	0.610
350.253	23.670	23.641	23.373	23.316	0.017	-0.002	0.077	0.024	0.009	4.474	1.043
350.453	23.741	23.423	23.576	24.150	0.017	-0.001	0.081	0.026	0.010	0.730	-0.081
350.653	23.691	23.482	22.975	24.309	0.017	-0.003	0.080	0.024	0.009	0.787	-0.109
350.853	23.757	23.439	23.234	23.692	0.016	-0.007	0.079	0.022	0.010	3.746	0.127
351.053	23.727	23.408	23.027	23.548	0.016	0.002	0.066	0.025	0.010	2.501	-0.081
351.254	23.765	23.494	23.390	23.838	0.016	-0.012	0.072	0.024	0.010	3.358	0.434
351.454	23.779	23.501	23.004	23.803	0.016	-0.011	0.071	0.025	0.010	2.291	-0.109
351.655	23.655	23.525	23.384	23.650	0.016	0.010	0.090	0.023	0.009	0.245	-0.004
351.856	23.748	23.472	23.534	23.533	0.016	-0.005	0.085	0.025	0.010	3.536	0.577
352.055	23.660	23.516	23.723	24.147	0.016	-0.009	0.085	0.024	0.009	0.124	0.188
352.255	23.778	23.551	23.379	24.039	0.017	-0.006	0.087	0.023	0.010	2.994	1.060
352.456	23.694	23.588	23.383	23.742	0.017	-0.006	0.078	0.024	0.009	2.679	1.054
352.656	23.675	23.615	23.114	23.858	0.016	0.003	0.089	0.022	0.010	3.495	1.389
352.855	23.636	23.548	23.765	23.850	0.016	-0.000	0.084	0.025	0.009	1.345	0.319
353.055	23.712	23.604	23.721	23.785	0.017	0.001	0.079	0.024	0.010	4.563	1.202
353.255	23.736	23.442	23.075	23.736	0.017	-0.009	0.080	0.025	0.010	2.250	0.632
353.456	23.650	23.545	23.271	23.988	0.017	0.009	0.088	0.024	0.009	3.786	1.389
353.655	23.631	23.474	23.139	24.080	0.017	0.004	0.098	0.024	0.009	1.175	0.089
353.856	23.648	23.476	23.263	24.021	0.016	0.002	0.089	0.023	0.009	1.029	0.451
354.056	23.610	23.559	23.554	23.916	0.016	0.014	0.076	0.026	0.009	3.156	1.114
354.256	23.667	23.563	23.469	24.025	0.017	0.011	0.083	0.023	0.009	3.770	1.169
354.456	23.732	23.499	23.170	24.054	0.016	-0.008	0.077	0.026	0.010	4.902	0.347
354.657	23.692	23.394	23.178	23.904	0.017	-0.008	0.096	0.022	0.010	2.153	0.242
354.857	23.656	23.401	23.508	23.969	0.001	0.049	0.160	0.026	0.010	2.460	0.061
355.056	23.740	23.682	22.920	23.450	0.000	0.047	0.149	0.029	0.010	5.800	0.484
355.256	23.615	23.743	23.137	23.832	0.008	0.054	0.168	0.028	0.009	161.260	0.632
355.456	23.693	23.501	23.265	24.246	0.015	0.100	0.195	0.030	0.010	160.015	-0.207
355.656	23.665	23.386	23.267	23.951	0.022	0.138	0.218	0.031	0.009	200.580	-0.284
355.856	23.702	23.639	23.223	23.887	0.037	0.204	0.287	0.036	0.010	629.048	0.561
356.057	23.801	23.510	22.945	23.650	0.051	0.287	0.363	0.049	0.010	627.617	0.089
356.257	23.548	23.872	23.411	23.326	0.059	0.365	0.418	0.049	0.009	1061.397	0.884
356.457	23.574	23.575	22.821	23.752	0.065	0.442	0.508	0.061	0.010	1362.389	0.391
356.657	23.500	23.554	23.540	23.893	0.063	0.532	0.592	0.062	0.009	1362.041	0.204
356.857	23.626	23.679	23.249	23.832	0.064	0.608	0.670	0.064	0.010	2283.370	-0.174
357.058	23.458	23.527	23.782	24.062	0.068	0.734	0.779	0.068	0.009	2283.281	0.698
357.257	23.467	23.843	23.397	23.625	0.070	0.833	0.873	0.072	0.009	2323.393	1.548
357.459	23.491	23.546	22.769	24.024	0.076	0.929	0.985	0.087	0.009	3319.999	0.029
357.658	23.531	23.820	23.364	23.941	0.078	1.065	1.088	0.092	0.009	3324.413	1.498
357.858	23.489	23.209	23.163	23.951	0.078	1.196	1.212	0.122	0.010	4169.795	0.714
358.058	23.502	23.407	23.069	23.462	0.088	1.340	1.173	0.111	0.009	4420.673	1.443
358.259	23.406	23.823	23.068	23.740	0.095	1.462	1.467	0.117	0.009	4417.803	1.421
358.460	23.532	23.576	22.993	24.086	0.110	1.608	1.595	0.129	0.009	5536.742	0.330
358.660	23.448	23.349	23.731	23.580	0.107	1.718	1.713	0.154	0.009	5535.812	1.213
358.861	23.446	23.474	23.561	23.654	0.121	1.841	1.854	0.167	0.009	5782.477	1.087
359.061	23.557	23.493	23.211	24.423	0.126	1.981	1.979	0.169	0.010	6646.003	1.811
359.261	23.494	23.273	23.082	23.948	0.133	2.095	2.106	0.216	0.009	6642.882	0.632
359.462	23.530	23.423	23.389	23.761	0.132	2.191	2.214	0.199	0.009	7658.229	1.871
359.662	23.599	23.599	23.021	23.486	0.137	2.337	2.312	0.187	0.010	7710.389	1.306
359.863	23.578	23.213	23.270	23.770	0.144	2.455	2.437	0.205	0.009	7709.548	1.548
360.064	23.506	23.463	23.282	23.727	0.140	2.565	2.543	0.201	0.009	8698.602	1.213
360.264	23.528	23.386	23.115	24.037	0.146	2.652	2.649	0.216	0.009	8699.257	1.197
360.465	23.486	23.323	23.560	24.169	0.161	2.732	2.739	0.239	0.010	9117.221	1.010
360.666	23.497	23.171	24.113	23.737	0.148	2.841	2.826	0.220	0.009	9615.298	1.652
360.866	23.522	23.498	23.528	23.612	0.150	2.900	2.904	0.239	0.009	9615.443	1.109
361.067	23.505	23.433	23.165	23.978	0.154	2.975	2.986	0.221	0.009	10444.630	1.251
361.266	23.689	23.569	23.459	23.592	0.157	3.073	3.047	0.234	38.145	10449.133	-0.333
361.466	23.609	23.504	23.431	24.251	0.147	3.157	3.119	0.232	38.162	10446.861	-0.410
361.667	23.767	23.534	23.077	23.958	0.154	3.246	3.194	0.271	38.165	11191.352	-0.503
361.867	23.731	23.523	23.278	23.523	0.156	3.326	3.256	0.274	38.165	11192.751	-0.125
362.067	23.744	23.236	23.277	24.062	0.150	3.403	3.315	0.278	38.166	11680.453	-0.964
362.268	23.710	23.367	23.314	24.113	0.160	3.472	3.359	0.282	38.165	11851.713	-1.024
362.469	23.705	23.663	23.223	23.780	0.160	3.502	3.397	0.290	38.165	11854.179	0.193
362.668	23.679	23.255	23.437	23.764	0.154	3.538	3.431	0.293	38.165	12416.220	-0.531
362.869	23.691	23.268	23.302	24.200	0.152	3.575	3.468	0.259	38.165	12415.775	-0.492
363.069	23.743	23.540	23.067	23.715	0.208	5.212	5.101	0.572	38.166	12532.433	-0.054
363.269	23.671	23.607	26.060	24.416	0.280	5.453	5.319	0.557	38.165	12893.347	0.884
363.470	23.717	23.288	35.219	25.623	0.308	5.948	5.758	0.524	38.166	12896.144	2.951
363.669	23.757	23.616	48.890	27.574	0.330	6.318	6.230	0.626	38.166	13428.438	3.248
363.869	23.777	23.393	65.102	30.164	0.350	6.800	6.693	0.661	38.166	13512.560	2.946
364.070	23.709	23.360	83.582	32.550	0.368	7.513	7.205	0.704	38.166	13510.628	4.279
364.269	23.816	23.413	105.890	35.319	0.389	8.197	7.800	0.754	38.166	14360.182	2.546
364.470	23.780	23.476	130.785	37.965	0.427	8.675	8.452	0.790	38.167	14363.925	4.569
364.670	23.706	23.724	157.801	40.645	0.455	9.238	9.095	0.904	38.166	14722.356	3.368
364.870	23.826	23.367	186.185	43.425	0.473	9.808	9.734	0.948	38.166	15417.032	4.953
365.072	23.714	23.771	215.825	46.724	0.516	10.533	10.493	0.915	30.678	15416.523	4.986
365.272	23.807	23.621	245.412	49.638	0.566	11.225	11.230	0.999	30.490	16653.179	5.364
365.471	23.953	24.271	275.349	52.556	0.601	12.046	12.036	1.214	30.491	16672.463	5.315
365.671	23.802	22.322	305.135	54.818	0.636	12.795	12.834	1.307	30.489	16672.884	6.417
365.871	23.780	23.720	334.816	58.096	0.668	14.330	14.344	1.768	30.489	18105.760	7.805
366.072	23.922	23.785	362.121	61.426	0.750	15.811	15.798	1.944	10.036	18109.819	7.081
366.272	23.921	23.571	385.699	65.236	0.799	17.258	17.299	2.089	-0.208	19090.366	7.130
366.472	23.869	23.931	407.754	69.573	0.878	18.861	18.871	2.268	-0.211	19769.024	7.317
366.673	23.934	23.950	426.755	73.327	0.936	20.649	20.675	2.453	-0.211	19771.078	8.868
366.874	24.142	23.913	442.883	78.138	1.007	22.522	22.507	2.651	-0.211	21755.370	8.830
367.073	24.058	24.208	455.575	82.888	1.090	24.266	24.243	2.804	-0.212	21756.050	10.546
367.273	24.333	24.184	467.080	87.386	1.161	26.633	26.627	3.087	38.139	21992.204	12.241
367.474	24.337	24.307	477.579	92.678	1.235	29.259	29.183	3.344	38.164	24030.160	12.356
367.675	24.474	24.448	485.698	97.726	1.416	31.690	31.690	3.589	38.165	24031.550	13.146
367.875	24.397	24.690	493.557	102.376	1.526	34.396	34.362	3.893	38.165	26225.662	14.517
368.075	24.529	24.809	499.900	107.840	1.580	37.383	37.388	4.212	38.166	26603.709	15.147
368.276	24.586	25.008	504.077	113.547	1.563	40.758	40.761	4.621	38.166	26604.194	16.102
368.475	24.587	25.219	507.930	117.573	1.520	43.984	43.904	4.989	38.166	29454.915	16.727
368.675	24.635	25.506	511.477	122.611	1.384	47.440	47.286	5.381	38.166	29460.809	17.999
368.875	24.633	25.697	514.229	126.694	1.137	50.872	50.801	5.806	38.166	30648.354	18.421
369.075	24.848	27.033	515.813	131.039	1.139	54.217	54.033	6.196	38.166	32544.611	19.375
369.276	24.849	26.102	517.362	134.288	1.126	57.288	57.125	6.559	38.166	32547.199	21.070
369.476	24.828	26.797	518.293	138.056	1.208	60.575	60.391	6.974	38.165	35730.259	21.920
369.676	24.738	26.963	518.057	140.985	1.311	63.363	63.124	7.268	38.166	35749.212	21.936
369.877	24.864	27.682	518.080	144.452	1.391	66.121	65.764	7.658	36.715	35757.305	22.764
370.077	24.765	27.962	516.784	147.015	1.456	68.389	68.122	7.868	18.378	38942.743	23.839
370.277	24.660	28.596	515.003	149.618	1.537	70.705	70.321	8.102	18.374	38944.675	24.640
370.478	24.713	29.006	512.946	151.949	1.642	72.414	72.211	8.224	18.399	41048.868	25.572
370.677	24.678	29.884	510.493	154.112	1.699	74.157	73.825	8.533	18.412	41926.454	25.336
370.878	24.735	30.012	507.849	156.749	1.742	75.414	75.040	8.775	18.412	41927.441	26.351
371.077	24.615	30.791	504.409	158.797	1.804	76.489	76.033	8.840	18.411	44571.375	27.091
371.279	24.608	31.237	501.089	159.951	1.846	77.187	76.753	8.908	18.411	44576.048	27.162
371.479	24.368	32.143	496.803	162.060	1.886	78.081	77.622	9.128	18.411	45170.682	26.795
371.680	24.479	32.669	492.527	163.698	2.244	75.824	75.446	8.907	20.493	46815.803	27.442
371.881	24.437	33.415	489.222	165.182	2.206	74.482	74.112	8.744	20.493	46815.948	25.896
372.080	24.494	33.991	487.895	165.911	2.167	73.301	72.915	8.473	21.847	48416.858	26.296
372.282	24.468	34.730	486.773	167.822	2.124	72.088	71.672	8.354	23.483	48490.582	24.530
372.482	24.375	35.609	486.797	169.153	2.072	70.945	70.521	8.237	23.483	48494.932	26.488
372.682	24.334	36.134	487.864	170.464	2.039	69.811	69.546	8.162	23.372	49508.379	23.971
372.883	24.411	36.754	488.506	171.255	2.013	68.855	68.551	7.975	23.371	49509.932	24.930
373.083	24.283	37.466	488.503	172.465	1.967	68.027	67.694	7.884	23.371	49801.771	23.631
373.283	24.296	38.137	488.734	173.526	1.943	67.175	66.837	7.736	16.331	50072.919	25.199
373.483	24.225	38.716	489.430	174.439	1.892	66.358	66.056	7.655	16.329	50069.749	23.022
373.683	24.105	39.402	489.753	176.037	1.873	65.584	65.219	7.532	16.558	50314.352	23.927
373.883	24.166	39.972	491.521	177.012	1.841	64.802	64.396	7.346	17.123	50316.786	23.006
374.084	24.068	40.594	492.219	177.626	1.824	64.083	63.728	7.259	17.123	50319.390	23.483
374.284	24.041	41.308	493.548	178.652	1.804	63.411	63.044	7.105	16.235	50360.545	23.302
374.486	23.953	41.885	495.085	179.763	1.782	62.720	62.347	7.094	16.138	50355.492	23.291
374.686	23.914	42.444	495.932	180.684	1.742	62.082	61.691	6.894	16.138	50275.784	23.082
374.886	23.988	42.917	496.825	181.353	1.734	61.469	61.095	6.702	15.648	50264.723	23.444
375.086	23.932	43.464	498.335	182.143	1.716	60.850	60.481	6.675	15.647	50265.281	22.353
375.286	23.781	44.053	500.097	182.978	1.701	60.290	59.909	6.612	15.605	50070.113	23.510
375.487	23.824	44.574	501.121	183.924	1.688	59.859	59.484	6.520	15.306	50074.002	22.567
375.688	23.729	45.076	502.174	185.126	1.681	59.439	58.994	6.468	15.306	49959.446	23.170
375.888	23.729	45.474	502.746	185.672	1.669	58.927	58.578	6.387	13.060	49800.719	22.112
376.090	23.753	46.029	503.953	186.842	1.649	58.601	58.180	6.143	12.319	49803.840	23.856
376.292	23.681	46.480	504.117	187.613	1.635	58.300	57.931	6.093	12.319	49489.629	22.008
376.492	23.630	46.963	504.768	188.158	1.646	57.929	57.452	5.976	12.281	49489.289	22.803
376.693	23.648	47.423	505.255	188.649	1.624	57.620	57.119	5.846	12.280	49484.438	22.775
376.893	23.606	47.868	505.566	190.020	1.627	57.283	56.857	6.033	12.311	49158.688	22.995
377.094	23.653	48.272	505.688	190.051	1.618	57.060	56.637	5.828	12.507	49161.397	23.104
377.293	23.646	48.606	505.557	191.343	1.629	56.841	56.436	5.528	12.507	48908.450	22.337
377.493	23.607	49.123	506.271	192.106	1.603	56.573	56.153	5.570	12.436	48829.858	22.677
377.695	23.661	49.458	506.876	192.418	1.616	56.388	55.957	5.456	12.394	48832.260	22.945
377.895	23.570	49.806	507.234	193.356	1.618	56.177	55.753	5.430	12.393	48518.097	22.112
378.095	23.501	50.316	507.361	193.910	1.608	55.991	55.434	5.333	12.167	48520.296	23.346
378.295	23.480	50.640	507.434	195.102	1.587	55.774	55.323	5.417	12.166	48429.981	23.093
378.495	23.474	51.006	508.296	195.684	1.583	55.618	55.196	5.384	12.166	48237.731	23.565
378.695	23.519	51.241	509.087	196.098	1.583	55.376	54.925	5.355	12.281	48234.279	22.391
378.895	23.449	51.740	509.222	196.717	1.586	55.280	54.806	5.150	12.280	47983.644	23.455
379.096	23.405	52.032	509.256	197.487	1.579	55.104	54.614	5.012	12.262	47981.816	23.784
379.295	23.427	52.357	510.493	198.143	1.580	54.874	54.405	5.380	12.243	47981.169	23.132
379.497	23.318	52.682	511.423	198.692	1.576	54.836	54.325	5.093	12.242	47741.951	23.187
379.697	23.314	53.006	512.382	199.981	1.570	54.617	54.134	5.012	12.092	47743.406	22.989
379.897	23.372	53.197	513.096	200.769	1.567	54.550	54.027	5.082	12.091	47607.505	22.348
380.099	23.368	53.657	513.399	200.679	1.549	54.311	53.865	5.111	12.091	47532.576	23.609
380.298	23.382	53.974	514.493	201.981	1.546	54.119	53.692	5.070	12.053	47533.409	23.576
380.498	23.260	54.307	515.908	202.556	1.539	54.049	53.584	5.087	12.052	47339.664	22.836
380.699	23.299	54.500	516.071	203.128	1.545	53.875	53.398	5.107	12.018	47335.249	22.123
380.898	23.301	54.873	516.516	203.457	1.541	53.824	53.378	4.959	11.939	47314.009	23.357
381.098	23.326	55.140	517.819	204.701	1.541	53.716	53.270	4.703	11.939	47160.780	22.479
381.299	23.239	55.461	518.038	205.363	1.522	53.590	53.162	4.886	12.144	47162.688	23.417
381.498	23.323	55.560	517.889	205.964	1.535	53.446	53.022	4.884	12.167	47017.763	22.814
381.699	23.219	55.942	519.194	206.960	1.528	53.233	52.857	4.874	12.166	47001.446	23.258
381.900	23.267	56.128	519.387	206.664	1.518	53.187	52.750	4.967	12.318	47002.489	22.825
382.100	23.234	56.533	520.100	207.505	1.524	53.068	52.650	4.642	12.318	46855.349	23.181
382.301	23.157	56.713	520.875	208.116	1.500	52.939	52.582	4.816	12.341	46855.074	23.176
382.501	23.167	56.969	521.931	209.012	1.499	52.922	52.519	4.701	12.507	46797.610	22.940
382.701	23.275	57.104	522.464	209.285	1.510	52.804	52.368	4.834	12.507	46721.995	23.647
382.900	23.206	57.323	521.745	210.566	1.516	52.646	52.249	4.733	12.335	46718.971	21.717
383.102	23.263	57.568	521.559	210.427	1.507	52.584	52.192	5.029	12.280	46599.111	22.545
383.302	23.141	57.902	521.009	211.547	1.511	52.518	52.130	4.862	12.280	46596.443	23.285
383.501	23.213	58.009	521.618	211.764	1.500	52.372	51.925	4.917	11.487	46597.372	22.463
383.703	23.199	58.399	522.313	212.720	1.494	52.231	51.863	4.872	11.485	46487.830	23.219
383.903	23.154	58.555	522.655	213.267	1.489	52.079	51.753	4.766	11.489	46484.773	22.868
384.104	23.187	58.701	523.652	213.638	1.488	52.038	51.667	4.780	11.712	46405.236	22.293
384.304	23.207	58.959	524.490	213.653	1.479	51.912	51.549	4.933	11.712	46376.751	22.737
384.505	23.176	59.166	525.384	215.238	1.484	51.847	51.445	4.927	11.903	46376.274	22.430
384.707	23.157	59.530	526.627	215.306	1.478	51.747	51.297	4.949	12.015	46276.054	23.587
384.907	23.245	59.612	527.741	215.511	1.483	51.677	51.285	4.661	12.015	46276.369	22.567
385.106	23.177	59.873	528.705	216.816	1.476	51.685	51.304	4.678	12.052	46246.946	23.718
385.306	23.199	60.049	529.379	217.322	1.471	51.641	51.194	4.910	12.052	46174.807	22.616
385.507	23.114	60.255	529.582	217.500	1.470	51.494	51.119	5.110	12.052	46176.586	23.488
385.706	23.118	60.350	528.849	217.810	1.459	51.440	51.066	5.063	12.204	46085.154	22.413
385.907	23.182	60.572	530.397	218.241	1.455	51.309	50.980	4.847	12.204	46085.502	22.764
386.106	23.267	60.751	530.422	219.006	1.452	51.303	50.895	4.912	12.120	46091.663	23.477
386.307	23.298	60.934	530.801	219.510	1.445	51.204	50.862	4.990	12.015	46007.930	23.378
386.507	23.309	61.138	531.783	219.985	1.459	51.210	50.814	4.741	12.015	46009.498	23.378
386.708	23.204	61.302	533.648	220.783	1.455	51.122	50.724	5.124	12.128	45948.808	22.764
386.909	23.263	61.525	534.457	220.851	1.474	51.080	50.700	4.768	12.129	45931.538	23.768
387.108	23.219	61.660	536.019	222.067	1.463	50.998	50.562	5.081	12.128	45925.845	22.781
387.309	23.331	61.791	537.267	221.556	1.450	50.967	50.628	5.164	12.432	45863.482	22.649
387.508	23.197	61.994	538.478	222.745	1.454	50.963	50.604	5.019	12.431	45862.560	23.653
387.710	23.288	62.092	540.096	223.225	1.453	50.932	50.534	5.014	12.486	45850.812	22.490
387.910	23.193	62.202	541.533	223.793	1.455	50.857	50.479	5.127	12.621	45797.003	23.055
388.110	23.273	62.419	543.091	224.069	1.442	50.800	50.423	5.168	12.621	45800.657	23.274
388.310	23.210	62.615	544.583	224.786	1.450	50.753	50.377	5.233	12.053	45743.751	23.565
388.512	23.205	62.737	545.723	225.513	1.440	50.772	50.399	5.135	11.977	45736.636	22.528
388.711	23.175	62.943	546.957	226.060	1.444	50.701	50.337	5.123	11.976	45739.668	23.801
388.911	23.249	63.153	548.526	226.276	1.443	50.700	50.342	5.155	11.901	45692.077	23.916
389.112	23.270	63.217	549.732	227.123	1.444	50.724	50.337	5.250	11.901	45690.880	23.735
389.311	23.168	63.372	550.537	227.328	1.446	50.693	50.272	4.916	11.925	45673.205	23.581
389.513	23.210	63.492	551.706	227.709	1.436	50.592	50.257	5.102	12.128	45643.936	23.121
389.712	23.163	63.683	552.262	228.305	1.441	50.612	50.265	5.315	12.128	45643.741	23.340
389.912	23.222	63.891	553.217	228.513	1.453	50.587	50.240	5.134	11.889	45608.076	23.614
390.112	23.163	64.006	554.336	229.737	1.442	50.540	50.185	5.157	11.787	45606.144	23.258
390.312	23.249	63.958	554.368	230.029	1.438	50.545	50.150	5.356	11.788	45604.915	22.249
390.512	23.188	64.314	555.411	231.055	1.434	50.576	50.224	5.037	12.090	45573.430	23.428
390.712	23.261	64.341	556.391	230.853	1.441	50.505	50.080	5.411	12.091	45575.710	23.291
390.913	23.175	64.562	557.041	231.451	1.444	50.471	50.143	5.424	12.078	45542.818	23.461
391.112	23.276	64.658	557.179	231.806	1.433	50.459	50.050	5.247	11.826	45542.106	23.307
391.314	23.168	64.752	558.474	232.846	1.435	50.505	50.085	5.373	11.825	45537.482	22.474
391.514	23.187	64.913	559.215	232.913	1.437	50.480	50.088	5.309	12.073	45512.182	23.066
391.716	23.170	64.981	559.922	233.601	1.443	50.455	50.091	5.306	12.280	45510.888	22.737
391.915	23.251	65.297	561.056	234.393	1.447	50.441	50.084	5.197	12.280	45511.026	23.949
392.117	23.156	65.355	561.941	234.645	1.444	50.449	50.053	5.366	12.016	45493.149	23.505
392.317	23.288	65.445	562.029	235.231	1.429	50.420	50.079	5.349	12.015	45494.580	23.521
392.516	23.295	65.591	562.883	235.334	1.450	50.388	49.989	5.422	12.015	45479.282	23.143
392.716	23.248	65.707	563.792	236.349	1.443	50.444	50.046	5.346	11.826	45476.023	23.028
392.916	23.242	65.874	563.912	236.616	1.439	50.384	50.038	5.473	11.826	45476.040	23.225
393.116	23.321	65.989	564.332	237.146	1.442	50.343	49.992	5.428	12.012	45465.189	23.905
393.316	23.184	66.104	565.212	237.380	1.441	50.442	50.045	5.421	12.204	45458.704	23.318
393.517	23.293	66.288	565.588	237.535	1.443	50.445	50.063	5.300	12.204	45459.278	24.174
393.717	23.240	66.370	566.357	238.445	1.443	50.423	50.098	5.449	11.840	45449.188	23.406
393.917	23.308	66.539	566.600	239.111	1.451	50.423	50.018	5.380	11.826	45452.996	24.256
394.117	23.335	66.620	567.506	239.481	1.447	50.432	50.044	5.402	11.826	45443.738	23.773
394.317	23.304	66.850	568.234	240.534	1.452	50.390	50.042	5.436	11.901	45442.242	24.130
394.518	23.263	66.837	568.178	240.170	1.446	50.407	49.986	5.520	11.901	45437.884	23.318
394.718	23.244	67.005	568.681	241.503	1.454	50.467	50.038	5.684	11.938	45434.852	22.989
394.920	23.351	67.040	569.285	241.553	1.451	50.452	50.030	5.585	12.091	45436.655	23.280
395.120	23.323	67.325	570.065	241.911	1.446	50.425	49.997	5.549	12.090	45434.561	24.344
395.321	23.311	67.429	569.929	242.111	1.456	50.378	49.943	5.453	12.059	45429.540	23.477
395.522	23.298	67.576	570.833	243.312	1.443	50.437	50.054	5.575	12.052	45432.548	24.102
395.722	23.327	67.630	571.802	243.480	1.449	50.383	50.006	5.728	12.052	45427.211	23.450
395.924	23.406	67.771	571.990	243.824	1.446	50.420	50.020	5.583	12.053	45430.049	24.185
396.124	23.444	67.821	573.158	244.228	1.440	50.397	50.003	5.481	12.053	45428.723	23.570
396.323	23.485	67.913	573.355	244.820	1.437	50.373	49.965	5.673	12.063	45429.766	23.302
396.523	23.392	68.182	574.052	245.328	1.451	50.401	49.957	5.587	12.204	45426.241	23.691
396.723	23.436	68.117	574.332	245.814	1.452	50.399	49.982	5.611	12.204	45424.543	23.006
396.924	23.493	68.262	574.038	246.231	1.454	50.336	49.971	5.705	12.153	45426.217	23.658
397.123	23.506	68.311	574.868	246.676	1.444	50.408	50.028	5.625	12.129	45425.812	23.702
397.324	23.542	68.522	574.808	246.854	1.447	50.438	50.046	5.603	12.129	45427.640	23.894
397.524	23.409	68.624	575.692	248.142	1.441	50.397	50.028	5.756	12.317	45421.454	23.357
397.725	23.521	68.798	576.035	248.051	1.449	50.378	50.023	5.757	12.318	45430.785	24.486
397.925	23.472	68.731	576.584	248.852	1.446	50.376	50.029	5.806	12.318	45426.395	22.879
398.125	23.546	69.030	576.902	248.633	1.448	50.358	49.983	5.736	12.431	45431.036	24.283
398.326	23.456	69.101	576.707	249.871	1.439	50.418	50.030	5.772	12.431	45428.618	23.439
398.526	23.509	69.305	577.737	250.770	1.439	50.459	50.035	5.728	12.373	45431.068	24.261
398.727	23.561	69.385	578.519	250.437	1.441	50.456	50.070	5.499	12.318	45436.307	23.708
398.927	23.579	69.458	578.650	250.663	1.448	50.471	50.033	5.547	12.318	45440.876	24.519
399.128	23.466	69.439	578.973	251.294	1.438	50.433	50.084	5.700	12.205	45434.529	23.285
399.327	23.432	69.661	579.379	251.872	1.435	50.458	50.064	5.750	12.204	45436.008	23.411
399.528	23.538	69.661	579.030	251.906	1.445	50.454	50.074	5.684	12.204	45440.091	23.335
399.728	23.437	69.865	579.841	253.003	1.443	50.456	50.105	5.757	11.901	45438.515	23.543
399.927	23.486	69.889	579.079	253.150	1.438	50.451	50.076	5.833	11.901	45448.298	23.340
400.127	23.469	70.002	579.742	253.819	1.429	50.448	50.051	5.848	12.005	45446.584	23.313
400.328	23.434	70.163	579.727	254.420	1.432	50.460	50.067	5.887	12.166	45452.624	23.609
400.527	23.526	70.240	579.677	253.948	1.424	50.440	50.050	5.811	12.166	45462.335	24.250
400.729	23.511	70.357	580.384	254.832	1.439	50.435	50.085	5.922	12.237	45460.604	23.740
400.928	23.395	70.415	580.394	255.795	1.439	50.503	50.104	5.892	12.242	45463.499	23.620
401.128	23.498	70.508	581.187	255.812	1.447	50.540	50.086	5.889	12.243	45467.776	23.219
401.329	23.376	70.748	580.999	256.764	1.448	50.622	50.209	5.705	12.204	45466.402	24.272
401.528	23.470	70.717	580.885	257.120	1.448	50.521	50.094	5.889	12.204	45477.196	23.439
401.729	23.379	70.892	581.793	257.171	1.448	50.501	50.119	5.884	12.171	45476.412	23.751
401.931	23.425	70.999	582.355	257.581	1.455	50.519	50.130	5.915	11.977	45486.818	24.662
402.131	23.365	71.053	582.080	258.361	1.444	50.487	50.161	5.890	11.976	45483.228	23.675
402.333	23.471	71.169	582.447	258.362	1.446	50.496	50.116	5.948	12.124	45489.251	24.453
402.534	23.389	71.228	582.731	259.212	1.445	50.560	50.137	5.918	12.166	45489.761	24.009
402.735	23.417	71.256	583.098	259.070	1.444	50.563	50.136	5.729	12.166	45490.925	23.060
402.934	23.366	71.516	583.087	259.830	1.444	50.550	50.125	5.912	11.863	45493.998	23.669
403.135	23.517	71.557	583.211	259.938	1.447	50.543	50.099	5.962	11.863	45505.131	24.102
403.335	23.426	71.559	583.691	260.237	1.452	50.552	50.162	5.891	11.852	45500.134	23.093
403.535	23.498	71.809	583.303	260.934	1.449	50.465	50.072	5.946	11.637	45511.204	24.810
403.736	23.479	71.749	583.311	260.991	1.459	50.533	50.166	5.980	11.637	45507.719	23.477
403.935	23.422	71.946	583.755	261.896	1.449	50.531	50.181	6.035	11.493	45509.586	24.892
404.136	23.379	72.049	583.851	262.376	1.457	50.552	50.159	5.816	11.408	45512.885	24.228
404.335	23.406	72.138	583.729	262.699	1.452	50.565	50.176	5.979	11.409	45514.842	24.497
404.536	23.513	72.092	583.958	263.347	1.454	50.552	50.127	5.851	11.862	45518.707	23.559
404.735	23.393	72.317	583.871	263.515	1.451	50.534	50.158	5.896	11.863	45518.028	24.415
404.936	23.389	72.420	583.883	263.545	1.461	50.539	50.135	5.891	11.863	45519.071	24.004
405.137	23.537	72.426	584.341	263.268	1.448	50.497	50.133	5.922	12.204	45525.232	24.009
405.336	23.466	72.495	584.241	264.461	1.461	50.585	50.134	5.922	12.204	45522.030	23.411
405.537	23.472	72.695	585.165	264.515	1.465	50.568	50.134	5.876	12.034	45528.216	24.283
405.737	23.492	72.602	584.629	265.556	1.466	50.578	50.167	5.987	11.826	45528.466	23.071
405.938	23.534	72.834	585.291	265.699	1.460	50.596	50.168	5.926	11.826	45532.937	24.706
406.137	23.475	72.777	585.174	265.799	1.473	50.538	50.125	6.038	12.161	45535.161	23.565
406.337	23.478	72.970	585.638	266.220	1.454	50.598	50.180	5.986	12.166	45538.630	24.574
406.538	23.529	72.967	586.297	267.112	1.456	50.580	50.196	5.970	12.167	45536.689	23.653
406.737	23.428	73.080	586.100	266.947	1.454	50.635	50.175	6.055	12.166	45539.568	24.124
406.937	23.440	73.127	586.266	266.855	1.463	50.666	50.190	5.888	12.166	45539.745	23.499
407.137	23.406	73.262	586.892	267.438	1.455	50.671	50.264	5.890	12.134	45541.330	23.581
407.338	23.536	73.286	587.099	268.003	1.454	50.583	50.172	6.002	12.053	45549.893	23.976
407.538	23.447	73.392	586.936	268.516	1.449	50.639	50.250	5.927	12.052	45547.111	24.228
407.738	23.484	73.435	587.324	268.394	1.456	50.640	50.180	5.983	12.350	45553.839	23.954
407.939	23.505	73.515	587.074	268.832	1.451	50.569	50.150	6.173	12.356	45556.313	24.015
408.140	23.418	73.596	587.283	269.125	1.460	50.588	50.129	5.959	12.356	45552.893	23.927
408.340	23.461	73.803	587.354	270.028	1.455	50.566	50.121	6.090	12.204	45561.698	24.585
408.540	23.479	73.816	586.589	269.640	1.457	50.624	50.192	6.012	12.204	45561.237	24.448
408.739	23.449	73.778	586.433	270.352	1.449	50.577	50.163	6.003	12.075	45558.771	23.313
408.940	23.519	73.955	586.763	270.716	1.463	50.581	50.176	6.040	11.674	45563.574	24.327
409.140	23.475	74.047	586.890	270.803	1.466	50.632	50.173	5.977	11.674	45562.336	24.316
409.341	23.423	74.244	586.940	271.384	1.449	50.651	50.234	6.041	12.187	45567.891	24.958
409.540	23.527	74.238	587.582	271.868	1.463	50.631	50.221	5.893	12.281	45570.010	24.497
409.741	23.498	74.319	587.794	271.905	1.449	50.650	50.231	6.067	12.280	45568.878	24.711
409.941	23.576	74.305	588.556	272.144	1.464	50.644	50.233	5.923	12.393	45574.109	24.124
410.142	23.480	74.462	588.657	272.691	1.463	50.706	50.278	5.999	12.393	45573.575	24.722
410.342	23.495	74.452	587.988	273.099	1.467	50.686	50.268	6.100	12.389	45578.799	24.042
410.542	23.532	74.598	588.490	273.176	1.467	50.732	50.267	6.067	12.053	45585.307	25.117
410.743	23.553	74.602	588.986	273.733	1.463	50.649	50.268	6.065	12.053	45582.825	23.790
410.943	23.507	74.778	589.479	273.357	1.465	50.687	50.223	6.028	12.095	45591.663	24.727
411.142	23.592	74.718	589.076	273.978	1.467	50.763	50.295	6.036	12.129	45591.630	24.492
411.343	23.504	74.907	588.972	274.913	1.461	50.690	50.238	5.942	12.128	45594.606	24.481
411.543	23.572	74.818	588.844	274.568	1.461	50.740	50.300	6.030	12.053	45595.940	24.080
411.743	23.627	74.991	588.938	274.684	1.451	50.713	50.287	6.069	12.053	45599.829	24.530
411.945	23.607	75.112	589.241	274.964	1.461	50.728	50.293	6.000	12.053	45610.817	24.854
412.144	23.580	75.259	588.633	275.223	1.465	50.798	50.333	5.945	11.750	45608.472	25.089
412.345	23.598	75.189	589.533	275.619	1.460	50.758	50.334	6.009	11.750	45608.440	24.168
412.544	23.593	75.191	588.911	275.610	1.458	50.732	50.330	6.110	11.707	45613.130	23.702
412.745	23.623	75.291	589.193	276.621	1.461	50.724	50.310	5.982	11.637	45613.663	24.163
412.946	23.589	75.472	589.165	276.723	1.458	50.783	50.314	6.034	11.637	45622.072	25.232
413.146	23.655	75.470	589.569	276.708	1.460	50.763	50.350	6.019	11.673	45622.590	24.355
413.345	23.542	75.597	589.837	277.025	1.472	50.782	50.367	6.083	11.674	45620.997	24.519
413.545	23.595	75.579	589.645	277.317	1.457	50.739	50.305	6.092	11.674	45629.163	23.581
413.746	23.598	75.660	589.392	277.721	1.470	50.788	50.377	6.098	11.862	45627.853	24.217
413.946	23.644	75.761	590.358	277.714	1.461	50.781	50.347	6.099	11.863	45636.392	24.930
414.147	23.595	75.740	589.790	278.035	1.472	50.766	50.350	6.052	11.863	45637.766	23.823
414.347	23.611	75.928	589.480	278.719	1.468	50.837	50.399	6.088	11.863	45638.098	24.695
414.546	23.728	75.947	589.641	278.435	1.473	50.736	50.337	6.113	11.863	45649.078	24.568
414.746	23.696	76.000	589.696	278.791	1.468	50.815	50.360	6.011	11.685	45650.436	24.168
414.946	23.691	76.033	589.624	279.591	1.466	50.737	50.385	6.062	11.674	45649.240	24.289
415.146	23.609	76.233	589.770	279.624	1.455	50.759	50.363	6.083	11.674	45652.183	24.996
415.347	23.684	76.160	589.984	279.644	1.445	50.808	50.362	6.131	11.863	45651.253	23.916
415.547	23.590	76.347	590.263	279.736	1.441	50.965	50.533	6.079	11.862	45657.010	24.788
415.747	23.683	76.274	589.916	280.102	1.462	51.104	50.684	6.054	11.873	45658.166	23.762
415.947	23.594	76.422	590.353	280.301	1.462	51.319	50.940	6.016	12.015	45658.748	24.601
416.148	23.657	76.399	590.681	280.730	1.460	51.617	51.216	6.149	12.015	45682.568	24.256
416.348	23.675	76.574	591.307	280.978	1.459	52.047	51.597	6.071	12.188	45686.805	25.457
416.549	23.650	76.559	592.144	281.412	1.474	52.514	52.087	6.227	12.280	45691.834	24.272
416.749	23.582	76.653	593.436	282.188	1.476	53.024	52.582	6.087	12.280	45762.663	24.958
416.950	23.650	76.678	594.762	281.799	1.489	53.615	53.193	6.174	12.318	45764.329	24.579
417.150	23.582	76.974	596.918	282.301	1.504	54.192	53.827	6.051	12.318	45910.920	26.471
417.350	23.584	76.900	598.540	283.442	1.502	54.946	54.573	6.135	12.318	45926.597	25.830
417.551	23.658	76.888	601.746	283.489	1.516	55.877	55.362	6.530	12.243	45929.945	26.170
417.751	23.642	76.961	605.656	284.041	1.534	56.609	56.086	6.567	12.242	46194.026	26.362
417.951	23.542	77.110	609.041	284.670	1.551	57.312	56.759	6.663	12.078	46192.829	27.113
418.150	23.535	77.244	610.980	284.876	1.567	57.923	57.348	6.681	11.901	46347.417	27.426
418.352	23.527	77.370	612.939	284.809	1.578	58.614	58.055	6.716	11.901	46559.629	27.667
418.551	23.580	77.431	614.854	285.694	1.595	59.230	58.628	7.115	12.014	46561.893	28.243
418.752	23.530	77.566	616.396	286.062	1.604	59.814	59.208	6.978	12.015	46989.472	28.308
418.952	23.600	77.662	617.119	286.080	1.622	60.426	59.834	7.052	12.015	46991.647	27.853
419.154	23.624	77.814	618.728	286.662	1.630	61.029	60.427	7.213	12.469	47002.279	29.087
419.353	23.581	77.881	619.956	286.870	1.627	61.791	61.163	7.280	12.469	47459.483	27.963
419.553	23.542	78.203	621.094	287.513	1.665	62.449	61.827	7.406	12.482	47460.696	29.153
419.753	23.601	78.241	622.022	287.610	1.661	63.117	62.517	7.211	12.507	47821.011	28.550
419.955	23.545	78.313	623.891	287.725	1.677	63.977	63.422	7.362	12.507	47965.411	28.868
420.154	23.587	78.527	624.257	288.220	1.707	64.835	64.288	7.557	12.686	47967.561	29.531
420.356	23.480	78.739	626.530	289.007	1.727	65.605	65.118	7.593	12.696	48514.102	29.416
420.555	23.549	78.924	627.658	288.976	1.751	66.437	66.013	7.548	12.696	48520.959	30.710
420.757	23.574	79.065	628.184	289.508	1.775	67.405	66.879	7.856	13.075	48693.027	30.047
420.956	23.574	79.250	628.973	290.158	1.772	68.260	67.710	7.992	13.075	49120.104	30.979
421.158	23.475	79.435	629.957	290.298	1.803	69.320	68.884	7.731	13.121	49115.439	30.847
421.357	23.581	79.731	630.476	290.599	1.849	70.283	69.973	7.629	13.340	49739.124	31.769
421.558	23.484	79.953	632.316	290.969	1.868	71.404	70.907	8.135	13.340	49751.390	32.613
421.758	23.579	80.125	633.095	290.729	1.896	72.450	71.934	7.989	13.606	49751.277	33.107
421.959	23.501	80.321	635.092	291.895	1.934	73.489	72.894	8.623	13.678	50417.103	32.569
422.158	23.463	80.642	636.026	291.769	1.972	74.434	73.916	8.374	13.679	50420.887	33.134
422.358	23.532	80.695	636.383	292.144	2.007	75.336	74.772	8.631	13.793	50834.324	32.772
422.559	23.535	80.983	636.749	292.249	2.041	76.389	75.776	8.832	13.793	51112.313	33.310
422.759	23.402	81.390	637.302	292.981	2.074	77.320	76.671	8.774	13.802	51109.547	34.231
422.959	23.503	81.702	637.969	293.120	2.117	78.413	77.760	8.899	14.208	51802.598	35.240
423.160	23.542	81.792	639.169	293.267	2.164	79.397	78.734	8.951	14.209	51801.191	34.500
423.360	23.521	82.231	639.861	293.995	2.200	80.402	79.681	8.955	14.231	51916.151	35.657
423.560	23.484	82.342	640.941	293.988	2.245	81.313	80.569	9.221	14.247	52496.449	35.563
423.760	23.549	82.725	641.274	294.404	2.263	82.204	81.355	9.203	14.247	52498.366	35.679
423.961	23.466	83.111	642.270	294.864	2.287	83.011	82.165	9.351	14.472	53162.292	35.892
424.161	23.417	83.494	643.435	294.796	2.311	83.863	83.039	9.428	14.473	53178.795	36.803
424.362	23.523	83.652	644.669	295.399	2.329	84.667	83.825	9.463	14.473	53179.199	37.044
424.563	23.512	84.083	645.681	294.777	2.349	85.480	84.673	9.665	14.813	53843.004	37.900
424.763	23.479	84.343	646.089	296.014	2.373	86.303	85.587	9.602	14.813	53836.641	36.786
424.963	23.423	84.616	647.271	296.431	2.392	87.103	86.301	9.867	14.974	54142.476	37.220
425.164	23.431	84.986	647.499	296.010	2.419	87.911	87.112	9.979	15.191	54477.451	37.730
425.364	23.420	85.381	647.736	296.586	2.434	88.741	87.936	9.995	15.191	54480.273	37.943
425.564	23.427	85.696	647.795	296.912	2.450	89.481	88.782	9.963	14.822	55107.855	37.932
425.764	23.407	86.150	647.454	297.021	2.502	90.205	89.411	10.095	14.813	55111.106	39.106
425.966	23.486	86.464	648.543	296.998	2.501	91.105	90.247	10.268	14.814	55146.819	40.455
426.165	23.423	86.861	649.116	298.108	2.532	91.868	90.995	10.474	15.153	55721.676	39.896
426.366	23.483	87.117	649.220	297.951	2.569	92.580	91.723	10.567	15.154	55724.789	39.627
426.566	23.431	87.572	649.771	298.753	2.581	93.375	92.474	10.386	15.110	56262.614	40.164
426.766	23.468	88.006	649.382	298.380	2.598	94.131	93.258	10.494	15.041	56311.588	41.294
426.967	23.420	88.377	650.091	299.675	2.610	94.633	93.814	10.634	15.040	56307.957	41.108
427.167	23.539	88.739	651.018	299.641	2.626	95.440	94.554	10.527	15.263	56864.727	41.760
427.369	23.556	89.049	650.931	299.873	2.666	95.972	95.136	10.621	15.306	56863.134	41.069
427.570	23.480	89.338	651.500	299.909	2.672	96.501	95.536	10.728	15.306	57050.645	41.343
427.769	23.460	89.874	651.602	300.363	2.695	96.866	96.004	10.884	15.608	57377.591	42.117
427.970	23.558	90.127	652.017	300.325	2.722	97.336	96.439	10.478	15.608	57379.588	41.848
428.169	23.574	90.497	651.834	300.861	2.718	97.880	96.966	10.914	15.588	57844.927	41.771
428.369	23.521	90.967	651.927	300.620	2.739	98.214	97.260	10.841	15.457	57847.934	42.698
428.569	23.573	91.340	651.450	300.814	2.747	98.705	97.709	10.893	15.457	57847.926	42.934
428.771	23.494	91.638	651.086	301.139	2.776	98.757	97.718	11.066	15.430	58261.250	42.308
428.971	23.400	92.062	649.252	301.404	2.782	98.900	97.930	11.095	15.419	58259.342	43.010
429.171	23.466	92.350	648.980	301.692	2.789	98.991	97.979	10.814	15.419	58508.983	42.627
429.372	23.376	92.742	649.120	301.410	2.797	98.664	97.713	11.042	15.418	58615.881	42.446
429.571	23.418	92.971	648.443	301.399	2.795	98.459	97.518	10.836	15.419	58615.744	41.941
429.773	23.364	93.403	648.223	302.055	2.785	98.136	97.159	10.903	15.419	58893.085	42.067
429.972	23.356	93.748	647.518	302.579	2.798	97.907	96.949	10.654	15.419	58891.671	42.999
430.172	23.381	94.108	646.541	301.958	2.794	97.642	96.726	10.718	15.419	58935.421	42.599
430.373	23.354	94.386	646.186	301.962	2.772	97.463	96.531	10.799	15.369	59062.671	42.396
430.572	23.324	94.730	645.450	302.121	2.779	97.317	96.456	10.553	15.267	59061.353	41.782
430.772	23.384	95.022	645.167	302.345	2.778	97.147	96.209	10.804	15.267	59161.015	42.040
430.972	23.354	95.352	644.257	302.651	2.766	96.600	95.737	10.734	15.156	59161.509	41.848
431.173	23.417	95.688	644.168	302.998	2.776	95.964	94.976	10.649	15.154	59167.484	41.788
431.374	23.326	95.942	644.044	303.326	2.742	95.181	94.305	10.366	15.153	59204.257	41.129
431.574	23.396	96.230	643.478	303.444	2.717	94.388	93.537	10.311	14.852	59207.273	41.628
431.775	23.328	96.507	642.499	302.901	2.702	93.585	92.707	10.176	14.851	59168.349	40.384
431.974	23.434	96.684	641.079	302.875	2.680	92.656	91.862	9.907	14.841	59144.351	40.389
432.175	23.389	96.898	639.977	303.421	2.654	91.804	91.034	10.193	14.776	59139.953	39.298
432.376	23.379	97.217	638.550	303.093	2.631	91.099	90.320	10.007	14.776	58978.145	40.279
432.576	23.384	97.335	637.348	303.794	2.604	90.500	89.705	10.287	14.519	58974.879	39.227
432.775	23.451	97.651	637.035	303.307	2.582	90.222	89.374	10.141	14.435	58955.441	39.621
432.975	23.452	97.776	635.668	303.390	2.569	89.734	88.875	10.315	14.435	58743.552	39.320
433.175	23.363	98.059	635.085	303.555	2.547	89.440	88.575	9.978	14.360	58741.150	39.446
433.377	23.412	98.097	632.669	302.998	2.547	88.946	88.042	10.398	14.360	58518.265	38.322
433.577	23.346	98.366	631.166	303.235	2.537	88.534	87.718	10.162	14.359	58485.834	38.815
433.777	23.432	98.392	629.598	303.453	2.522	88.255	87.501	9.850	14.058	58489.780	38.563
433.977	23.412	98.736	629.010	302.866	2.524	88.126	87.296	10.021	14.058	58238.368	38.810
434.177	23.438	98.833	628.268	303.203	2.501	87.902	87.115	10.038	13.984	58236.557	38.135
434.378	23.412	99.197	628.904	303.087	2.519	87.640	86.898	9.865	13.944	58140.663	38.695
434.578	23.487	99.192	628.324	303.155	2.488	87.512	86.729	10.030	13.944	58008.416	38.508
434.778	23.400	99.300	628.420	303.492	2.488	87.362	86.587	10.092	13.756	58003.516	37.872
434.979	23.479	99.466	628.938	303.110	2.470	87.177	86.392	10.058	13.755	57803.286	38.760
435.179	23.390	99.725	629.151	303.279	2.461	87.123	86.337	9.946	13.755	57797.804	38.261
435.380	23.397	99.775	629.679	303.486	2.479	87.024	86.250	10.102	14.208	57792.597	37.921
435.581	23.374	99.913	629.969	303.317	2.465	86.917	86.187	10.088	14.208	57620.003	38.130
435.780	23.422	99.996	630.307	303.585	2.464	86.888	86.124	9.964	14.196	57618.872	37.724
435.981	23.535	100.242	630.580	303.049	2.472	86.869	86.068	9.962	14.171	57514.083	38.437
436.181	23.417	100.263	631.202	303.690	2.468	86.842	86.076	10.168	14.170	57472.823	38.338
436.382	23.449	100.590	632.074	304.148	2.465	86.797	86.053	10.167	14.424	57475.515	38.459
436.582	23.450	100.560	632.929	303.313	2.444	86.866	86.106	10.116	14.434	57363.223	38.777
436.781	23.374	100.766	633.247	303.730	2.435	86.906	86.201	10.075	14.434	57358.049	37.971
436.981	23.478	100.723	633.525	303.531	2.453	87.112	86.268	10.100	14.625	57335.522	37.296
437.183	23.375	100.935	634.387	303.586	2.446	87.203	86.414	10.019	14.624	57276.344	38.843
437.382	23.469	100.967	634.808	304.204	2.461	87.410	86.693	10.185	14.617	57274.323	38.042
437.583	23.487	101.039	635.516	304.067	2.467	87.631	86.891	10.014	14.586	57238.205	38.706
437.785	23.390	101.253	636.329	304.093	2.484	87.982	87.187	10.296	14.586	57232.505	38.711
437.984	23.424	101.475	636.565	304.321	2.488	88.275	87.440	10.250	14.552	57236.645	39.106
438.184	23.474	101.482	637.015	304.364	2.490	88.474	87.736	10.084	14.549	57238.157	38.135
438.385	23.452	101.616	637.457	304.916	2.495	88.757	87.971	10.409	14.548	57238.270	37.993
438.585	23.509	101.794	638.461	304.048	2.511	89.035	88.285	10.376	14.663	57273.199	39.117
438.785	23.398	101.978	639.895	305.200	2.502	89.218	88.372	10.195	14.662	57289.039	39.133
438.986	23.457	101.926	640.478	305.271	2.521	89.380	88.643	10.777	14.663	57287.155	38.799
439.186	23.549	102.166	640.482	305.362	2.525	89.494	88.747	10.552	14.663	57372.352	39.227
439.385	23.532	102.187	641.135	305.511	2.518	89.718	88.834	10.493	14.663	57370.937	39.292
439.586	23.422	102.418	641.167	305.288	2.529	89.787	88.959	10.525	14.662	57382.596	38.771
439.785	23.592	102.447	641.681	305.647	2.534	89.922	89.124	10.171	14.662	57458.843	39.364
439.986	23.522	102.643	641.960	305.884	2.528	90.031	89.225	10.515	14.662	57452.455	38.437
440.186	23.494	102.851	642.039	306.078	2.537	90.057	89.280	10.329	14.361	57533.731	39.654
440.386	23.557	102.888	641.421	306.548	2.534	90.112	89.360	10.349	14.359	57537.135	38.574
440.587	23.580	102.947	642.446	305.914	2.546	90.170	89.437	10.408	14.360	57539.666	38.760
440.787	23.616	103.161	642.399	306.730	2.552	90.209	89.439	10.453	14.133	57617.731	39.462
440.988	23.629	103.277	641.424	306.437	2.552	90.288	89.541	10.256	14.134	57619.049	39.506
441.187	23.547	103.475	642.194	307.110	2.551	90.375	89.607	10.167	14.260	57653.647	39.419
441.388	23.520	103.608	641.602	307.490	2.553	90.445	89.685	10.225	14.397	57682.982	39.972
441.587	23.526	103.735	642.185	307.514	2.557	90.409	89.686	10.501	14.397	57680.896	39.183
441.787	23.530	103.818	641.530	307.392	2.560	90.351	89.604	10.443	14.613	57739.912	39.649
441.987	23.617	103.942	641.015	308.020	2.567	90.444	89.718	10.168	14.625	57743.186	39.599
442.187	23.597	104.039	640.797	307.951	2.565	90.515	89.737	10.123	14.625	57744.569	39.386
442.387	23.520	104.109	641.346	308.980	2.566	90.528	89.814	10.381	14.398	57789.298	38.667
442.587	23.450	104.322	641.075	308.888	2.562	90.566	89.812	10.290	14.397	57789.921	39.484
442.787	23.460	104.362	640.947	308.481	2.576	90.608	89.812	10.365	14.373	57825.125	38.859
442.988	23.592	104.558	640.442	308.682	2.570	90.632	89.886	10.467	14.247	57835.863	39.709
443.187	23.531	104.638	641.165	309.021	2.583	90.748	89.914	10.228	14.246	57834.318	38.777
443.389	23.591	104.803	640.885	308.934	2.573	90.760	89.919	10.227	14.530	57873.760	39.890
443.588	23.563	104.849	640.548	309.165	2.569	90.777	90.056	9.946	14.625	57873.557	39.309
443.788	23.468	104.993	641.612	309.671	2.582	90.721	89.985	10.331	14.624	57880.713	39.216
443.989	23.544	105.096	641.489	309.610	2.565	90.955	90.090	10.264	14.625	57910.848	39.698
444.189	23.572	105.214	641.739	309.508	2.581	90.846	90.103	9.817	14.625	57913.112	39.956
444.391	23.536	105.336	640.768	309.597	2.566	90.980	90.126	10.141	14.618	57944.896	39.484
444.591	23.460	105.450	640.560	310.392	2.566	90.840	90.152	10.424	14.548	57940.578	39.501
444.792	23.584	105.481	640.738	310.239	2.564	90.930	90.166	10.117	14.549	57943.481	39.545
444.992	23.416	105.588	640.440	310.634	2.561	90.944	90.132	10.127	14.389	57967.018	39.270
445.193	23.547	105.672	640.160	310.564	2.564	90.897	90.163	9.905	14.322	57966.808	38.261
445.394	23.427	105.848	640.155	310.870	2.556	90.956	90.172	10.279	14.322	57982.647	39.654
445.594	23.457	105.899	639.613	311.281	2.563	91.028	90.201	10.026	14.322	57987.385	38.651
445.793	23.457	106.106	639.604	310.336	2.562	91.081	90.211	10.137	14.322	57990.757	39.715
445.994	23.518	106.047	639.353	311.195	2.551	91.200	90.400	10.256	14.322	58020.124	39.808
446.194	23.541	106.303	637.875	311.323	2.555	91.150	90.310	10.482	14.548	58017.286	39.929
446.394	23.570	106.259	636.946	311.648	2.576	91.139	90.324	10.426	14.549	58020.908	38.919
446.594	23.469	106.411	635.993	310.742	2.585	91.045	90.240	10.205	14.671	58033.740	39.276
446.794	23.555	106.407	636.085	310.610	2.575	91.064	90.260	9.945	14.889	58038.510	38.667
446.995	23.429	106.611	635.919	311.291	2.593	90.975	90.222	9.974	14.888	58050.493	38.919
447.196	23.529	106.620	635.936	311.467	2.567	90.979	90.236	10.437	14.814	58053.735	38.558
447.396	23.483	106.786	635.588	311.325	2.581	90.944	90.193	10.276	14.813	58054.455	39.797
447.596	23.561	106.790	635.602	310.933	2.571	90.970	90.189	10.312	14.814	58065.451	39.007
447.796	23.490	106.900	635.639	312.111	2.571	90.912	90.092	10.035	14.322	58062.686	38.793
447.998	23.524	106.937	635.624	311.262	2.576	90.873	90.088	10.288	14.322	58064.845	38.212
448.197	23.464	107.184	635.751	312.176	2.580	90.874	90.101	10.166	14.352	58061.837	39.249
448.397	23.446	107.222	635.919	311.350	2.569	90.846	90.074	10.366	14.473	58061.869	38.941
448.599	23.558	107.212	635.882	311.875	2.564	90.737	89.967	10.230	14.473	58064.546	38.799
448.799	23.568	107.286	636.203	311.698	2.567	90.794	90.052	10.103	14.473	58065.581	38.739
448.998	23.554	107.567	636.438	312.578	2.562	90.865	90.097	10.446	14.473	58067.044	39.704
449.200	23.628	107.560	636.554	312.446	2.570	90.891	90.120	9.997	14.473	58067.367	38.590
449.399	23.522	107.718	636.009	312.134	2.564	90.907	90.137	10.273	14.473	58068.613	40.356
449.599	23.631	107.754	636.718	312.094	2.575	90.808	90.079	10.382	14.473	58069.769	39.561
449.799	23.582	107.784	637.067	312.805	2.565	90.868	90.156	10.063	14.473	58065.201	38.985
450.000	23.566	107.961	637.668	312.947	2.559	90.891	90.155	9.853	14.548	58070.189	40.016
450.201	23.562	108.050	637.388	312.764	2.553	91.019	90.172	9.989	14.549	58075.518	39.907
450.401	23.648	108.046	637.882	313.091	2.577	90.961	90.252	10.103	14.401	58075.243	39.205
450.601	23.562	108.126	638.215	312.752	2.567	90.989	90.252	10.108	14.322	58072.777	38.618
450.802	23.605	108.296	639.188	313.314	2.566	91.031	90.225	10.398	14.323	58082.326	40.077
451.003	23.626	108.398	639.650	313.388	2.563	91.050	90.301	10.275	14.322	58081.113	39.874
451.203	23.643	108.440	640.021	313.092	2.572	91.083	90.318	9.952	14.323	58088.083	38.865
451.403	23.579	108.619	640.924	313.516	2.564	91.038	90.325	10.306	14.322	58088.212	39.731
451.604	23.664	108.545	640.756	313.417	2.578	91.090	90.366	9.955	14.246	58089.740	39.117
451.804	23.607	108.757	641.314	313.171	2.577	91.095	90.350	10.201	14.246	58098.165	39.627
452.005	23.608	108.819	641.735	313.812	2.577	91.281	90.436	9.956	14.233	58101.302	39.956
452.205	23.630	108.909	641.435	314.141	2.573	91.179	90.394	10.187	14.208	58105.280	39.561
452.405	23.705	108.846	640.930	314.239	2.577	91.138	90.409	10.138	14.209	58109.436	39.155
452.605	23.663	108.937	640.960	314.258	2.583	91.248	90.484	9.862	14.171	58107.043	39.249
452.805	23.733	109.024	641.626	314.127	2.584	91.156	90.463	10.216	14.171	58119.446	39.013
453.005	23.627	109.135	641.942	314.302	2.580	91.252	90.447	10.299	14.170	58114.086	38.832
453.205	23.704	109.118	642.689	314.421	2.594	91.103	90.371	10.057	14.360	58121.266	38.881
453.405	23.699	109.315	643.315	314.358	2.600	91.158	90.400	10.069	14.359	58129.472	40.186
453.605	23.707	109.389	643.752	314.627	2.581	91.151	90.413	10.288	14.347	58129.804	40.022
453.805	23.638	109.457	644.097	314.945	2.589	91.146	90.408	10.158	14.246	58134.259	40.164
454.006	23.718	109.466	644.858	315.109	2.585	91.257	90.478	10.406	14.247	58134.461	39.506
454.205	23.614	109.570	644.995	314.672	2.596	91.252	90.530	9.975	14.442	58130.362	39.117
454.405	23.699	109.735	644.744	314.942	2.565	91.198	90.534	10.345	14.511	58140.606	40.334
454.605	23.636	109.783	645.516	315.006	2.576	91.299	90.547	10.202	14.511	58138.843	39.599
454.806	23.674	109.848	645.585	315.124	2.580	91.214	90.457	10.234	14.662	58146.630	39.813
455.005	23.649	109.797	645.752	315.576	2.562	91.152	90.487	10.105	14.663	58147.519	39.281
455.206	23.619	110.021	646.084	314.859	2.555	91.240	90.487	10.588	14.662	58147.495	39.572
455.405	23.631	110.010	646.337	315.512	2.560	91.299	90.553	10.110	14.511	58155.710	39.249
455.606	23.722	110.138	646.673	315.239	2.578	91.195	90.495	10.329	14.511	58161.410	40.077
455.806	23.662	110.119	646.473	315.257	2.571	91.275	90.554	10.234	14.572	58156.462	39.068
456.008	23.761	110.246	646.746	315.585	2.570	91.295	90.561	10.320	14.625	58170.636	40.225
456.209	23.668	110.284	646.923	315.710	2.576	91.252	90.486	10.216	14.625	58164.062	39.375
456.408	23.686	110.512	647.300	315.444	2.575	91.281	90.569	10.090	14.136	58177.460	40.636
456.608	23.617	110.395	647.485	315.049	2.569	91.285	90.609	9.764	14.133	58174.824	39.720
456.810	23.677	110.514	647.407	315.816	2.609	91.266	90.572	10.068	14.133	58180.136	40.285
457.011	23.664	110.406	647.860	316.352	2.594	91.366	90.583	10.418	14.283	58184.494	39.254
457.210	23.629	110.570	648.048	316.411	2.587	91.365	90.634	10.005	14.283	58183.694	39.687
457.410	23.723	110.607	648.379	316.101	2.584	91.347	90.602	10.179	14.259	58191.893	39.287
457.612	23.702	110.676	647.852	316.345	2.591	91.348	90.638	10.334	14.209	58196.946	39.775
457.811	23.730	110.697	647.920	315.829	2.560	91.322	90.564	10.296	14.209	58197.269	39.265
458.011	23.647	110.914	648.258	316.070	2.578	91.306	90.571	10.187	14.278	58207.579	40.460
458.212	23.584	110.945	648.197	316.086	2.574	91.354	90.631	9.972	14.283	58200.892	39.594
458.411	23.600	111.029	648.602	316.889	2.558	91.241	90.562	10.129	14.284	58202.913	40.438
458.612	23.632	110.964	648.444	316.684	2.570	91.341	90.602	10.128	14.133	58204.069	39.024
458.812	23.681	111.088	648.548	316.617	2.567	91.284	90.627	10.137	14.133	58207.910	40.532
459.012	23.709	111.013	649.186	316.139	2.567	91.384	90.615	10.000	14.195	58210.231	39.331
459.214	23.629	111.225	649.601	316.390	2.574	91.404	90.683	10.259	14.586	58213.077	39.885
459.414	23.695	111.196	649.293	316.324	2.572	91.389	90.687	10.196	14.587	58211.605	39.188
459.614	23.632	111.304	649.762	317.176	2.578	91.383	90.644	10.264	14.450	58223.240	40.011
459.813	23.751	111.375	649.835	316.536	2.563	91.396	90.655	10.161	14.398	58224.995	40.268
460.014	23.631	111.433	649.681	316.845	2.593	91.414	90.662	10.381	14.397	58223.564	39.846
460.214	23.701	111.294	649.309	316.821	2.576	91.361	90.731	10.065	14.586	58228.318	39.002
460.415	23.663	111.561	649.990	317.422	2.570	91.693	90.847	10.171	14.586	58229.232	40.400
460.615	23.634	111.545	649.741	316.495	2.570	91.675	90.861	10.035	14.586	58234.536	39.682
460.816	23.667	111.723	648.790	316.299	2.562	91.848	91.050	10.099	14.700	58236.670	40.219
461.016	23.627	111.726	647.532	316.431	2.573	91.876	91.023	10.198	14.700	58232.886	39.397
461.216	23.616	111.666	646.930	316.212	2.559	91.893	91.030	10.232	14.562	58250.133	39.709
461.416	23.606	111.704	645.245	316.597	2.577	91.897	91.066	10.473	14.435	58250.513	39.627
461.616	23.659	111.878	644.109	316.678	2.573	91.917	91.122	10.191	14.435	58269.457	40.252
461.818	23.694	111.830	643.115	316.392	2.566	91.964	91.188	10.157	14.473	58277.171	39.528
462.017	23.717	111.904	642.197	316.358	2.576	91.710	90.938	10.139	14.473	58278.933	40.296
462.217	23.650	111.891	640.606	316.167	2.575	91.608	90.916	10.179	14.473	58292.396	38.870
462.417	23.685	111.948	639.250	316.195	2.581	91.615	90.839	10.250	14.360	58292.371	39.232
462.617	23.649	112.158	639.385	316.160	2.567	91.587	90.881	10.214	14.360	58297.004	40.268
462.818	23.633	112.174	639.059	316.524	2.548	91.792	91.011	10.341	14.348	58297.886	40.082
463.018	23.746	112.144	638.098	315.975	2.564	91.850	90.974	10.367	14.323	58299.810	39.654
463.218	23.668	112.280	637.432	316.223	2.584	91.795	90.989	10.358	14.322	58304.540	40.153
463.418	23.762	112.158	635.845	316.112	2.584	91.930	91.057	10.026	14.562	58307.111	39.528
463.619	23.726	112.368	635.979	316.084	2.580	91.915	91.039	10.337	14.586	58307.071	40.159
463.819	23.656	112.346	634.336	316.099	2.595	91.722	90.888	10.389	14.587	58308.583	38.865
464.019	23.640	112.490	633.042	315.630	2.588	91.616	90.924	9.978	14.435	58313.353	40.170
464.219	23.750	112.306	633.383	315.861	2.588	91.540	90.853	10.365	14.436	58316.135	39.205
464.419	23.675	112.551	633.349	315.646	2.578	91.619	90.850	9.919	14.439	58318.763	40.115
464.620	23.672	112.549	632.953	316.317	2.566	91.697	90.816	10.163	14.473	58318.164	40.120
464.819	23.678	112.555	633.190	315.960	2.573	91.793	90.940	10.146	14.473	58317.032	40.449
465.020	23.744	112.616	633.581	315.557	2.581	91.559	90.853	10.653	14.158	58316.086	39.539
465.220	23.669	112.723	633.002	315.866	2.592	91.582	90.829	10.414	14.095	58315.116	40.389
465.422	23.757	112.608	632.460	315.786	2.584	91.500	90.811	10.263	14.095	58314.914	39.369
465.623	23.643	112.732	632.188	315.826	2.583	91.464	90.799	10.147	14.058	58313.200	40.192
465.822	23.694	112.639	632.007	316.043	2.575	91.523	90.755	9.782	14.058	58310.532	39.166
466.022	23.616	112.700	631.678	315.979	2.565	91.570	90.770	10.613	14.058	58306.594	39.144
466.223	23.630	112.849	631.481	315.485	2.591	91.775	90.991	10.048	14.057	58307.928	39.972
466.423	23.606	112.905	630.821	315.997	2.597	91.802	90.938	10.077	14.057	58305.648	39.627
466.622	23.722	112.769	630.216	315.882	2.581	91.759	90.935	10.674	14.132	58305.963	39.205
466.822	23.671	113.001	629.613	315.989	2.598	91.814	91.084	10.390	14.170	58310.920	40.373
467.022	23.803	112.928	628.944	315.242	2.594	91.617	90.843	10.460	14.171	58320.355	39.111
467.222	23.683	112.970	628.153	316.216	2.600	91.636	90.823	10.608	14.283	58318.286	39.484
467.422	23.712	113.159	627.840	315.744	2.589	91.559	90.814	10.301	14.283	58324.536	40.428
467.622	23.650	113.173	627.415	315.818	2.587	91.495	90.833	10.327	14.283	58322.239	39.967
467.823	23.799	113.165	626.926	315.745	2.574	91.542	90.732	10.597	14.549	58324.083	39.517
468.023	23.647	113.166	626.563	315.973	2.577	91.542	90.784	10.189	14.549	58314.534	40.071
468.223	23.727	113.318	626.835	315.624	2.581	91.479	90.710	10.456	14.465	58319.474	39.961
468.423	23.618	113.239	626.780	315.893	2.591	91.433	90.629	10.222	14.283	58307.985	39.764
468.624	23.702	113.454	627.940	315.312	2.582	91.491	90.743	10.271	14.283	58307.419	40.071
468.823	23.738	113.319	627.213	316.092	2.577	91.652	90.781	10.045	14.177	58308.906	40.060
469.025	23.744	113.299	627.512	315.640	2.565	91.737	90.873	10.286	14.171	58299.026	39.254
469.224	23.627	113.441	627.652	315.783	2.562	91.729	90.950	10.293	14.170	58296.350	40.033
469.424	23.745	113.422	626.855	315.431	2.538	91.814	90.972	10.086	14.095	58301.322	40.016
469.625	23.695	113.396	626.514	315.761	2.543	91.745	90.942	10.229	14.095	58301.104	39.111
469.825	23.714	113.440	626.242	315.474	2.565	91.710	90.970	10.483	14.108	58301.961	38.755
470.025	23.699	113.571	625.376	315.463	2.568	91.826	91.036	10.491	14.208	58312.795	40.460
470.225	23.720	113.607	624.756	315.807	2.542	91.801	90.979	10.585	14.208	58311.874	39.671
470.426	23.664	113.631	623.740	315.389	2.553	91.742	90.890	10.340	14.235	58311.785	39.961
470.626	23.784	113.609	622.542	315.055	2.541	91.717	90.979	10.122	14.246	58323.986	39.391
470.827	23.654	113.729	622.459	315.266	2.527	92.149	91.380	10.027	14.246	58320.905	39.978
471.027	23.813	113.627	622.296	315.477	2.523	92.862	91.988	10.404	14.359	58328.449	39.698
471.228	23.702	113.793	622.867	315.328	2.534	93.782	92.890	10.237	14.359	58331.093	40.285
471.427	23.688	113.832	622.980	315.028	2.559	94.872	94.023	10.875	14.359	58336.074	41.354
471.628	23.830	113.800	622.935	315.824	2.589	96.164	95.391	10.628	14.323	58435.704	41.596
471.828	23.774	113.999	623.370	315.898	2.617	97.908	97.058	11.107	14.322	58436.383	42.714
472.027	23.694	114.010	624.204	315.714	2.664	99.520	98.736	10.959	14.457	58459.604	42.813
472.228	23.859	114.067	624.078	315.924	2.700	101.581	100.735	11.729	14.625	58691.085	42.950
472.427	23.740	114.060	625.081	315.953	2.764	103.667	102.752	11.595	14.625	58689.120	43.307
472.627	23.749	114.253	626.599	316.298	2.816	105.872	104.940	12.112	14.919	59078.632	44.858
472.827	23.753	114.171	627.569	316.692	2.896	107.991	107.141	12.288	14.927	59132.482	45.418
473.027	23.786	114.463	629.061	316.919	2.948	109.926	109.043	12.927	14.927	59135.384	45.686
473.227	23.792	114.481	629.793	317.449	3.021	112.183	111.312	13.144	15.646	59753.418	46.394
473.427	23.706	114.799	631.424	317.963	3.075	114.500	113.512	13.609	15.646	59750.353	46.860
473.629	23.677	114.944	633.851	317.496	3.163	116.782	115.714	13.539	15.783	60128.125	48.077
473.829	23.691	115.166	635.582	317.636	3.238	118.751	117.733	14.142	16.138	60517.896	49.278
474.031	23.740	115.370	637.645	318.270	3.305	120.559	119.472	13.868	16.138	60517.653	49.574
474.231	23.708	115.553	638.695	318.671	3.352	122.184	121.052	14.316	16.138	61370.636	49.887
474.431	23.674	115.958	639.489	318.825	3.422	123.532	122.260	14.207	16.138	61367.782	49.607
474.633	23.700	116.154	640.507	319.237	3.490	124.446	123.206	14.704	16.138	61391.335	49.547
474.832	23.708	116.455	640.736	319.595	3.528	125.330	124.144	14.594	16.214	62240.703	49.909
475.032	23.723	116.624	641.185	319.550	3.558	126.058	124.889	14.748	16.214	62238.496	49.256
475.233	23.582	117.008	642.194	319.994	3.557	126.779	125.603	14.758	16.213	62843.091	49.947
475.433	23.686	117.290	643.053	319.762	3.594	127.552	126.218	15.195	16.214	63036.634	50.353
475.633	23.611	117.580	643.813	320.494	3.622	128.030	126.817	15.467	16.214	63029.130	49.882
475.834	23.676	117.862	644.699	320.096	3.632	128.556	127.338	15.566	16.358	63725.601	50.441
476.033	23.572	118.134	645.875	320.824	3.655	129.071	127.816	15.537	16.516	63720.710	50.348
476.233	23.579	118.526	646.394	320.905	3.658	129.790	128.478	15.325	16.516	63912.741	51.050
476.433	23.676	118.751	646.988	321.170	3.687	130.011	128.780	15.496	16.480	64321.723	51.000
476.635	23.559	119.146	648.102	320.636	3.702	130.580	129.307	15.560	16.478	64319.734	51.225
476.834	23.576	119.477	649.647	321.141	3.731	130.918	129.710	15.495	16.479	64823.381	50.567
477.034	23.704	119.763	650.455	321.575	3.710	131.426	130.207	15.243	16.403	64836.957	51.636
477.234	23.664	120.095	652.138	321.612	3.746	132.066	130.853	15.766	16.403	64834.871	51.450
477.434	23.679	120.532	653.651	321.668	3.796	132.589	131.352	15.942	16.464	65286.544	52.267
477.635	23.555	120.781	655.237	321.108	3.800	132.873	131.753	16.048	16.630	65286.577	52.245
477.835	23.624	121.041	657.136	322.028	3.778	133.292	132.057	16.047	16.630	65540.478	51.625
478.036	23.515	121.397	659.187	322.221	3.804	133.824	132.590	16.279	16.602	65682.711	51.916
478.235	23.472	121.799	660.903	322.301	3.816	134.321	133.072	16.347	16.592	65684.102	52.426
478.436	23.557	122.086	662.621	322.210	3.815	134.916	133.766	16.556	16.592	66036.986	52.689
478.636	23.482	122.481	663.851	322.751	3.845	135.524	134.327	16.499	16.781	66038.433	53.155
478.836	23.549	122.690	664.411	322.173	3.855	136.284	134.974	16.582	16.782	66091.555	52.580
479.037	23.542	123.222	665.434	322.424	3.886	136.768	135.465	16.387	16.782	66375.899	53.194
479.236	23.527	123.352	666.634	322.400	3.893	137.481	136.070	16.303	16.896	66373.481	52.338
479.436	23.534	123.860	668.344	322.235	3.910	137.717	136.482	16.944	16.895	66668.830	53.572
479.636	23.533	124.167	669.813	322.421	3.923	138.012	136.741	16.807	16.926	66693.410	53.276
479.836	23.492	124.488	670.477	322.488	3.947	138.108	136.868	16.550	16.971	66688.405	52.766
480.036	23.543	124.782	672.428	322.303	3.956	138.327	137.169	16.839	16.971	66986.008	53.627
480.238	23.459	125.193	675.322	322.434	3.996	138.576	137.393	17.018	17.153	66985.127	54.510
480.437	23.477	125.378	677.481	322.870	3.990	138.873	137.654	16.777	17.161	67101.462	54.121
480.637	23.383	125.864	680.732	322.802	3.967	139.075	137.877	17.087	17.160	67234.792	54.674
480.838	23.488	126.107	682.918	323.400	3.991	139.377	138.175	16.913	17.388	67239.061	54.636
481.040	23.426	126.480	685.773	323.411	3.985	139.641	138.460	16.830	17.387	67446.406	54.938
481.240	23.547	126.727	688.651	323.136	3.978	139.920	138.778	17.199	17.356	67452.939	54.795
481.439	23.520	127.042	690.844	324.361	3.983	140.111	138.968	17.179	17.010	67460.742	54.652
481.641	23.449	127.467	694.202	323.972	4.017	139.648	138.454	16.942	17.009	67645.787	55.278
481.841	23.375	127.790	696.646	324.564	4.040	137.722	136.712	16.817	16.801	67640.815	54.938
482.042	23.483	128.068	697.836	323.718	3.930	136.335	135.231	16.112	16.706	67741.043	54.471
482.243	23.370	128.372	699.175	324.443	3.871	135.366	134.234	16.377	16.706	67761.249	53.451
482.442	23.361	128.534	700.330	324.523	3.836	134.533	133.191	16.236	16.366	67763.294	52.607
482.642	23.441	128.808	700.870	324.789	3.787	133.644	132.346	16.188	16.365	67714.385	52.064
482.843	23.385	128.980	700.577	324.949	3.791	132.798	131.493	16.417	16.365	67713.932	51.631
483.043	23.409	129.321	700.719	324.535	3.763	132.286	130.921	15.976	16.139	67666.834	52.421
483.244	23.339	129.425	699.666	324.306	3.755	131.969	130.654	15.807	16.138	67572.541	51.505
483.443	23.371	129.669	698.232	325.169	3.735	131.385	130.024	15.826	16.089	67573.567	51.379
483.644	23.354	129.866	696.788	325.111	3.741	131.280	129.822	16.094	16.025	67391.166	51.104
483.843	23.258	130.142	695.816	325.374	3.723	131.133	129.716	15.907	16.025	67390.778	52.070
484.044	23.283	130.297	694.062	325.005	3.716	130.791	129.452	15.997	15.987	67391.829	51.379
484.245	23.196	130.533	692.182	325.343	3.724	130.858	129.352	15.575	15.986	67212.298	51.762
484.446	23.259	130.531	691.036	325.332	3.713	130.465	129.139	15.665	15.987	67209.767	50.633
484.645	23.224	130.787	689.975	325.306	3.698	130.408	128.975	15.733	16.213	67108.448	51.291
484.845	23.315	130.945	688.398	325.781	3.695	130.390	129.001	15.829	16.214	67061.317	50.885
485.045	23.385	131.131	687.604	325.490	3.706	130.190	128.888	15.579	16.226	67062.554	51.203
485.247	23.393	131.266	686.880	325.692	3.699	130.107	128.806	15.491	16.328	66927.372	51.077
485.447	23.314	131.471	685.764	325.509	3.704	130.057	128.784	15.672	16.327	66928.528	51.335
485.649	23.290	131.571	684.702	326.116	3.708	130.029	128.699	15.478	16.135	66902.129	51.132
485.848	23.202	131.644	683.661	326.463	3.690	129.984	128.602	15.614	16.062	66811.345	51.050
486.049	23.221	131.810	683.558	326.270	3.684	129.976	128.549	15.732	16.062	66809.033	51.220
486.250	23.278	132.057	683.137	326.571	3.693	129.797	128.399	15.986	15.798	66729.277	52.355
486.450	23.193	132.031	681.873	326.586	3.688	129.819	128.421	15.576	15.797	66723.205	51.000
486.649	23.217	132.278	681.465	326.441	3.663	129.956	128.637	15.647	15.797	66728.573	52.064
486.851	23.231	132.302	680.563	326.579	3.663	130.201	128.868	15.804	15.608	66647.031	51.390
487.051	23.224	132.567	680.119	326.469	3.675	130.555	129.238	15.315	15.608	66652.675	52.185
487.250	23.161	132.566	680.485	327.416	3.700	130.752	129.507	16.050	15.626	66625.580	51.000
487.451	23.174	132.658	680.466	326.893	3.706	131.009	129.688	15.959	15.646	66609.126	51.214
487.651	23.205	132.770	680.179	326.990	3.708	131.132	129.938	16.042	15.646	66609.838	51.828
487.851	23.138	132.985	681.033	327.687	3.735	131.277	129.974	15.920	15.829	66614.794	51.960
488.052	23.237	132.973	681.370	327.654	3.726	131.483	130.191	15.906	15.836	66616.969	51.812
488.252	23.218	133.248	681.426	327.925	3.733	131.545	130.319	15.794	15.836	66625.216	52.782
488.453	23.148	133.313	682.245	328.405	3.737	131.558	130.217	15.733	16.138	66648.163	52.695
488.652	23.323	133.427	683.180	327.586	3.721	131.796	130.528	15.779	16.139	66650.281	52.810
488.852	23.242	133.490	683.516	328.430	3.713	131.795	130.562	15.747	16.186	66681.960	51.527
489.053	23.170	133.709	684.282	328.506	3.756	131.706	130.386	16.089	16.364	66684.540	52.119
489.254	23.194	133.667	684.460	328.885	3.738	131.750	130.409	15.947	16.365	66682.251	51.510
489.455	23.215	133.922	685.562	328.989	3.759	131.792	130.479	15.507	16.271	66723.237	52.700
489.655	23.158	134.118	686.065	328.727	3.731	131.684	130.355	15.829	16.214	66720.868	52.788
489.855	23.243	134.182	686.211	329.138	3.770	131.740	130.458	15.996	16.214	66731.905	52.678
490.056	23.262	134.231	686.985	328.771	3.754	131.666	130.419	15.922	16.139	66744.065	52.004
490.256	23.136	134.430	687.323	329.362	3.758	131.836	130.561	16.099	16.138	66741.041	52.618
490.456	23.094	134.503	686.826	329.800	3.748	131.822	130.480	16.214	16.138	66753.348	51.198
490.656	23.244	134.557	686.710	329.531	3.758	131.847	130.560	15.692	16.176	66759.218	52.130
490.857	23.101	134.668	686.557	329.081	3.752	132.094	130.807	16.006	16.175	66752.911	51.521
491.057	23.124	134.767	686.776	329.641	3.761	132.089	130.829	15.915	16.131	66776.327	51.444
491.257	23.082	134.771	686.946	329.538	3.749	132.236	131.061	16.037	16.025	66778.461	51.905
491.459	23.138	134.970	687.320	330.173	3.745	132.505	131.214	15.862	16.025	66799.952	51.603
491.659	23.245	135.126	688.158	330.464	3.777	132.627	131.368	15.951	16.242	66806.000	51.812
491.858	23.260	135.242	688.330	330.262	3.782	132.671	131.496	16.052	16.289	66809.744	52.865
492.058	23.165	135.427	689.785	330.352	3.788	132.863	131.667	16.062	16.289	66854.586	52.547
492.259	23.263	135.477	690.721	330.945	3.788	133.082	131.870	16.069	16.441	66859.858	52.656
492.458	23.177	135.674	692.021	330.647	3.770	133.140	132.070	16.307	16.441	66874.186	53.111
492.659	23.143	135.756	693.567	330.901	3.808	133.888	132.513	16.446	16.440	66908.986	53.101
492.858	23.275	135.796	695.301	331.152	3.802	133.832	132.582	16.695	16.251	66909.447	52.645
493.059	23.153	135.994	696.933	331.832	3.829	134.123	132.865	16.471	16.251	66976.548	52.782
493.258	23.295	136.049	697.807	331.661	3.820	134.073	132.942	16.346	16.252	66978.659	52.821
493.459	23.287	136.095	698.964	331.424	3.815	134.302	133.097	16.372	16.251	66979.217	52.256
493.658	23.226	136.377	699.904	331.598	3.822	134.576	133.419	16.371	16.251	67055.390	53.430
493.859	23.319	136.455	700.477	330.668	3.833	134.833	133.615	16.652	16.178	67061.568	53.441
494.060	23.273	136.455	701.189	331.997	3.860	135.174	133.990	16.598	16.175	67107.049	52.596
494.260	23.245	136.764	701.864	331.262	3.867	135.468	134.258	16.880	16.175	67141.687	53.534
494.462	23.200	136.754	701.812	332.505	3.870	135.728	134.486	16.761	16.441	67137.806	52.771
494.661	23.310	136.832	703.065	332.260	3.880	136.040	134.819	16.618	16.441	67238.463	52.744
494.862	23.196	136.955	704.758	332.452	3.887	136.130	134.997	16.804	16.602	67233.943	52.563
495.061	23.213	137.269	706.152	332.205	3.892	136.377	135.190	16.842	16.970	67255.919	53.676
495.262	23.354	137.257	707.068	332.283	3.907	136.534	135.311	16.794	16.971	67340.381	53.578
495.461	23.329	137.356	707.602	332.314	3.906	136.632	135.446	16.582	16.940	67340.640	53.824
495.662	23.305	137.431	708.695	332.321	3.918	136.689	135.559	16.421	16.933	67429.006	53.567
495.863	23.338	137.590	709.116	332.750	3.916	136.805	135.580	17.058	16.933	67435.685	53.737
496.062	23.228	137.837	710.620	332.763	3.900	137.172	135.864	17.317	16.819	67435.159	54.082
496.263	23.257	138.030	710.682	332.589	3.931	137.003	135.803	16.870	16.819	67525.313	54.636
496.462	23.346	138.003	711.021	332.442	3.922	136.984	135.773	16.724	16.820	67527.059	53.819
496.662	23.351	138.147	711.884	332.774	3.906	136.935	135.852	16.840	16.857	67561.245	53.841
496.862	23.266	138.272	712.863	332.646	3.898	137.011	135.829	16.803	16.857	67596.870	53.863
497.062	23.377	138.383	713.896	332.704	3.912	137.032	135.896	16.949	16.857	67602.376	53.665
497.263	23.302	138.624	714.680	333.000	3.913	136.987	136.065	16.977	16.856	67657.730	54.406
497.463	23.387	138.671	715.826	333.190	3.930	137.164	136.139	16.943	16.857	67661.279	54.543
497.664	23.312	138.717	717.676	333.343	3.940	137.186	135.988	16.735	16.989	67658.021	53.144
497.864	23.342	138.969	720.022	332.989	3.910	137.183	136.033	16.823	17.009	67711.911	54.411
498.065	23.256	138.904	721.281	333.689	3.921	137.102	135.929	16.859	17.009	67707.650	53.737
498.265	23.377	139.076	722.598	333.622	3.938	137.105	135.951	17.082	17.009	67743.307	53.956
498.464	23.305	139.200	724.373	333.924	3.911	137.158	135.955	17.066	17.009	67746.452	53.786
498.664	23.427	139.294	724.496	333.765	3.924	137.136	136.017	17.060	17.011	67749.743	53.589
498.866	23.328	139.299	724.959	334.462	3.942	137.102	135.993	16.734	17.046	67777.606	53.347
499.066	23.392	139.581	725.816	333.770	3.935	137.081	135.863	16.949	17.046	67782.635	54.274
499.266	23.435	139.592	726.084	334.354	3.907	137.152	136.024	17.003	16.994	67790.146	53.742
499.466	23.395	139.779	727.086	333.519	3.925	137.428	136.259	16.878	16.933	67806.277	54.477
499.666	23.250	139.937	727.178	334.249	3.954	137.202	136.022	16.955	16.932	67802.129	54.126
499.868	23.403	140.068	726.076	334.559	3.932	137.190	136.305	17.115	17.233	67827.227	54.406
500.068	23.257	140.154	727.113	334.825	3.940	137.368	136.275	17.394	17.235	67824.728	53.994
500.269	23.427	140.156	727.474	335.060	3.941	137.353	136.140	16.886	17.236	67826.879	54.263
500.469	23.334	140.130	728.660	334.506	3.950	137.337	136.070	16.798	17.312	67846.696	54.049
500.670	23.334	140.407	729.289	334.872	3.941	137.233	135.973	16.993	17.312	67851.758	54.389
500.870	23.296	140.470	730.035	334.867	3.930	137.197	136.013	16.836	17.312	67855.372	53.397
501.069	23.309	140.625	731.842	334.635	3.909	137.192	136.057	17.015	17.350	67863.951	54.746
501.270	23.300	140.622	732.280	334.928	3.922	137.111	135.961	16.827	17.350	67860.644	54.186
501.472	23.284	140.796	732.463	335.014	3.918	137.389	136.218	16.964	17.221	67869.692	54.614
501.671	23.320	140.838	732.298	334.985	3.922	137.522	136.321	17.081	17.085	67870.945	55.146
501.871	23.408	140.941	731.554	335.159	3.955	137.402	136.283	16.670	17.085	67877.915	54.828
502.071	23.400	140.938	729.995	334.933	3.966	137.320	136.093	16.721	17.012	67884.804	53.512
502.273	23.410	141.062	728.954	335.055	3.928	137.189	135.960	16.877	17.009	67888.175	54.148
502.472	23.288	141.227	728.808	335.214	3.931	137.268	136.019	16.812	17.009	67895.307	54.861
502.672	23.406	141.231	728.589	335.152	3.940	136.956	135.845	16.797	17.085	67896.859	55.036
502.873	23.245	141.447	728.180	335.548	3.914	137.011	135.850	16.820	17.084	67894.264	54.422
503.072	23.330	141.355	727.813	334.853	3.931	136.940	135.790	16.934	17.089	67888.579	53.583
503.274	23.338	141.635	728.170	335.370	3.921	136.918	135.754	16.518	17.123	67891.822	55.184
503.473	23.398	141.639	727.567	335.763	3.884	136.849	135.628	16.842	17.123	67887.819	54.203
503.675	23.281	141.757	728.130	335.462	3.892	136.808	135.649	16.855	17.149	67879.605	53.665
503.874	23.377	141.666	727.914	335.663	3.904	136.725	135.611	16.820	17.161	67879.281	54.236
504.075	23.256	141.955	728.285	335.697	3.870	137.011	136.068	16.959	17.160	67869.611	54.713
504.275	23.364	141.865	729.276	335.877	3.885	137.356	136.267	17.180	17.010	67868.147	54.790
504.476	23.371	142.052	731.767	335.708	3.944	137.288	136.082	16.970	17.009	67871.543	54.565
504.675	23.381	142.119	732.042	335.862	3.919	137.147	136.009	16.606	17.009	67876.120	54.960
504.875	23.268	142.248	732.786	335.657	3.904	137.253	136.017	16.648	17.047	67876.346	55.025
505.075	23.356	142.105	732.983	335.981	3.920	137.366	136.174	17.113	17.047	67881.108	54.131
505.276	23.310	142.403	732.257	336.111	3.934	137.436	136.165	17.179	17.057	67883.874	54.729
505.475	23.425	142.317	731.274	336.074	3.923	137.196	136.014	16.635	17.085	67884.868	54.263
505.675	23.306	142.499	730.727	335.846	3.928	137.139	135.862	16.786	17.085	67894.474	54.641
505.875	23.395	142.524	729.429	335.920	3.930	137.003	135.829	16.356	17.116	67895.703	54.822
506.075	23.324	142.629	728.765	335.961	3.912	136.971	135.660	17.030	17.122	67889.542	53.885
506.275	23.413	142.647	728.214	335.891	3.922	137.062	135.843	16.908	17.122	67890.536	54.598
506.475	23.303	142.848	727.983	335.786	3.902	137.278	135.996	17.007	16.819	67891.975	55.009
506.676	23.320	142.725	726.510	336.144	3.901	137.353	136.116	16.969	16.820	67885.208	54.422
506.875	23.266	142.909	725.856	336.022	3.934	137.467	136.205	16.864	16.819	67884.229	54.515
507.075	23.268	142.977	723.851	335.912	3.936	137.536	136.250	16.953	17.008	67885.378	55.360
507.275	23.272	142.954	721.869	336.028	3.920	137.830	136.457	16.949	17.009	67892.404	53.945
507.476	23.294	143.147	720.441	335.133	3.932	137.420	136.178	16.733	17.028	67896.131	55.146
507.676	23.271	143.169	719.685	335.629	3.931	137.315	136.070	16.609	17.047	67905.818	53.786
507.876	23.378	143.186	719.693	335.903	3.920	137.043	135.889	16.821	17.047	67913.734	53.901
508.076	23.303	143.189	719.744	335.339	3.931	137.135	135.884	16.476	16.933	67912.408	53.035
508.275	23.307	143.281	719.984	336.051	3.904	137.036	135.827	16.273	16.933	67913.475	54.263
508.475	23.255	143.406	720.395	336.032	3.917	136.927	135.719	16.668	16.932	67914.194	54.055
508.676	23.369	143.410	720.437	335.504	3.895	136.882	135.730	16.475	16.933	67914.550	54.817
508.876	23.298	143.565	721.705	335.858	3.910	136.827	135.944	17.064	16.932	67902.414	53.874
509.076	23.389	143.493	723.370	335.909	3.909	136.900	136.130	17.379	16.914	67908.276	54.077
509.276	23.318	143.568	725.475	336.016	3.915	137.453	136.258	16.996	16.819	67902.398	54.504
509.477	23.376	143.520	725.755	335.675	3.932	137.495	136.245	16.980	16.819	67902.842	54.296
509.678	23.371	143.779	725.490	335.936	3.938	137.590	136.362	16.880	16.952	67906.651	54.822
509.878	23.350	143.779	725.211	335.386	3.929	137.708	136.406	16.853	17.009	67922.102	54.954
510.078	23.302	143.864	723.719	335.417	3.943	137.513	136.272	17.226	17.009	67919.612	54.466
510.279	23.358	143.928	722.959	335.866	3.948	137.588	136.313	16.834	16.819	67927.616	54.400
510.479	23.333	143.973	721.961	335.428	3.940	137.544	136.321	16.899	16.819	67936.470	54.378
510.679	23.386	144.008	719.811	335.604	3.925	137.667	136.324	16.906	16.819	67935.532	54.099
510.879	23.371	144.104	718.860	335.166	3.935	137.579	136.321	17.039	16.744	67948.412	54.565
511.079	23.380	144.210	717.370	335.210	3.956	137.426	136.182	16.520	16.744	67949.229	54.131
511.279	23.456	144.272	716.823	335.102	3.939	137.069	135.920	16.679	16.847	67953.539	54.625
511.480	23.479	144.177	716.330	334.891	3.920	136.909	135.733	16.750	17.009	67949.245	53.627
511.679	23.425	144.424	716.194	335.206	3.935	136.862	135.635	16.606	17.009	67949.504	54.285
511.879	23.495	144.299	716.396	335.407	3.917	136.778	135.531	16.743	17.009	67936.381	53.945
512.080	23.508	144.338	716.675	334.932	3.916	136.531	135.313	16.821	17.009	67935.233	53.572
512.280	23.412	144.548	716.997	335.028	3.887	136.491	135.287	16.389	17.009	67937.974	54.883
512.479	23.450	144.593	717.341	335.493	3.894	136.434	135.172	16.897	16.970	67907.467	54.499
512.679	23.560	144.454	717.550	335.029	3.913	136.440	135.217	16.544	16.971	67908.138	53.967
512.880	23.498	144.600	717.474	335.018	3.915	136.502	135.241	16.647	16.982	67893.981	53.117
513.079	23.501	144.690	717.594	335.004	3.894	136.472	135.088	17.168	17.199	67880.922	54.263
513.280	23.487	144.736	717.292	334.807	3.902	136.439	135.161	16.681	17.199	67879.936	53.791
513.480	23.568	144.670	717.460	335.448	3.901	136.372	135.203	16.757	17.178	67857.345	53.106
513.680	23.457	144.915	717.035	335.122	3.872	136.313	135.141	16.897	17.160	67856.868	54.175
513.881	23.556	144.973	716.897	334.878	3.894	136.323	135.129	16.886	17.161	67858.833	54.269
514.080	23.569	144.839	716.684	334.983	3.866	136.379	135.243	16.816	17.236	67844.085	54.104
514.280	23.510	144.910	716.646	335.020	3.857	136.619	135.390	16.925	17.237	67840.357	53.824
514.480	23.648	144.904	716.300	335.723	3.869	136.740	135.445	16.919	17.237	67839.557	54.274
514.681	23.500	145.055	715.440	335.660	3.899	136.636	135.406	16.852	17.236	67832.652	54.186
514.880	23.621	145.011	714.915	335.454	3.878	136.726	135.519	16.792	17.237	67834.827	53.961
515.080	23.611	145.101	714.665	335.401	3.859	136.612	135.522	16.815	17.199	67841.077	53.726
515.280	23.588	145.282	714.149	334.692	3.881	136.600	135.372	16.847	17.009	67842.767	54.356
515.480	23.666	145.160	713.063	335.101	3.881	136.544	135.330	16.748	17.010	67842.686	53.885
515.680	23.680	145.187	712.707	335.230	3.889	136.602	135.431	16.644	17.036	67849.308	54.208
515.880	23.647	145.166	712.627	334.953	3.868	136.629	135.414	16.793	17.047	67846.818	53.770
516.080	23.638	145.319	712.147	335.140	3.887	136.636	135.477	16.463	17.047	67850.254	53.375
516.281	23.634	145.390	712.477	335.297	3.883	136.722	135.462	16.515	17.123	67854.378	53.473
516.482	23.600	145.541	712.396	335.087	3.886	136.720	135.459	16.783	17.123	67853.941	54.636
516.682	23.602	145.503	711.784	334.982	3.897	136.861	135.596	16.677	17.123	67858.186	54.247
516.882	23.624	145.639	713.258	334.874	3.891	136.747	135.496	16.773	17.122	67860.442	54.861
517.083	23.717	145.570	713.117	335.364	3.897	136.690	135.388	16.746	17.123	67864.630	53.451
517.282	23.641	145.646	713.052	335.104	3.916	136.381	135.244	16.915	17.178	67870.702	54.592
517.483	23.603	145.635	713.310	335.287	3.902	136.398	135.104	16.922	17.236	67865.609	53.621
517.682	23.632	145.816	713.937	335.117	3.893	136.306	135.009	17.016	17.236	67864.153	54.466
517.883	23.669	145.826	713.684	335.428	3.870	136.147	134.904	16.746	17.123	67864.113	54.384
518.083	23.592	145.846	713.962	335.397	3.858	136.181	135.283	17.064	17.123	67857.620	53.934
518.284	23.704	145.853	714.645	335.299	3.882	136.534	135.436	16.960	17.123	67845.532	54.164
518.483	23.645	145.713	717.010	334.964	3.909	136.466	135.212	16.980	17.047	67841.667	53.600
518.684	23.617	145.808	718.325	335.295	3.906	136.503	135.272	16.549	17.047	67841.336	53.512
518.885	23.643	146.022	718.825	334.986	3.888	136.547	135.281	17.394	17.056	67845.184	55.075
519.087	23.595	145.923	719.396	335.133	3.895	136.446	135.168	16.791	17.085	67841.603	54.170
519.286	23.701	145.925	719.460	335.375	3.892	136.350	135.124	16.835	17.085	67844.093	54.466
519.486	23.592	146.090	719.486	335.727	3.891	136.389	135.139	16.923	17.117	67841.239	54.647
519.688	23.622	146.037	719.787	335.514	3.887	136.149	134.863	16.871	17.122	67838.142	55.036
519.887	23.604	146.038	718.873	335.438	3.900	136.369	135.202	16.548	17.122	67832.240	53.852
520.087	23.584	146.234	718.915	335.723	3.905	136.330	135.253	16.510	16.971	67834.406	55.020
520.288	23.662	146.245	718.953	335.001	3.901	136.333	135.126	16.930	16.971	67828.383	54.186
520.488	23.678	146.274	718.809	335.711	3.907	136.437	135.201	16.719	16.970	67829.086	54.526
520.689	23.630	146.379	718.593	334.779	3.896	136.457	135.194	16.737	16.933	67825.512	54.790
520.889	23.628	146.356	718.075	335.069	3.916	136.496	135.183	16.888	16.932	67828.407	55.722
521.088	23.598	146.351	718.188	335.300	3.919	136.385	135.185	16.803	16.912	67822.464	54.669
521.288	23.610	146.402	717.669	334.984	3.906	136.521	135.249	16.699	16.895	67826.782	55.294
521.488	23.664	146.243	717.506	335.539	3.897	136.284	134.970	16.833	16.895	67823.548	54.066
521.690	23.704	146.379	716.994	334.969	3.902	136.337	135.068	17.328	16.820	67825.706	54.521
521.890	23.574	146.533	716.296	335.571	3.895	136.197	134.935	16.689	16.819	67819.788	54.274
522.092	23.743	146.496	715.284	335.805	3.905	136.162	134.904	16.696	16.820	67825.108	54.839
522.292	23.623	146.512	714.697	335.400	3.867	136.204	134.912	17.063	16.782	67814.823	53.813
522.494	23.597	146.632	714.298	335.603	3.896	136.198	134.898	16.937	16.782	67806.042	54.071
522.693	23.750	146.621	713.534	334.756	3.893	136.113	134.890	16.668	16.714	67812.689	54.225
522.894	23.763	146.615	713.365	335.168	3.925	136.105	134.865	17.104	16.630	67803.625	54.400
523.095	23.654	146.723	713.089	335.029	3.917	136.120	134.904	17.014	16.630	67799.574	54.587
523.295	23.776	146.598	712.502	334.964	3.905	136.337	135.007	16.759	16.698	67801.442	54.367
523.494	23.652	146.641	711.873	334.937	3.905	136.310	135.045	16.882	16.706	67787.745	53.698
523.695	23.613	146.815	711.819	335.222	3.909	136.259	134.998	16.789	16.706	67789.815	54.471
523.895	23.751	146.827	711.473	334.870	3.903	136.369	135.136	16.609	16.706	67795.297	54.641
524.097	23.792	146.779	711.492	335.125	3.915	136.360	135.103	16.896	16.707	67793.736	54.433
524.296	23.628	146.892	711.298	335.002	3.905	136.230	134.874	16.536	16.711	67789.782	54.126
524.496	23.733	147.019	710.645	334.941	3.903	136.121	134.846	16.659	16.820	67792.289	55.168
524.698	23.730	146.957	711.461	334.963	3.909	136.012	134.800	16.603	16.819	67791.602	54.757
524.897	23.786	146.914	711.187	335.557	3.893	136.071	134.843	16.497	16.710	67790.009	54.768
525.097	23.667	146.963	711.740	335.332	3.887	136.056	134.824	16.774	16.630	67775.350	53.638
525.297	23.732	146.943	712.038	335.457	3.904	136.157	134.942	16.649	16.630	67776.741	54.044
525.498	23.835	146.982	711.482	335.445	3.914	136.246	134.985	16.704	16.630	67778.204	54.587
525.699	23.804	147.029	711.700	335.397	3.913	136.214	134.995	16.534	16.631	67777.323	54.674
525.900	23.771	147.129	711.467	335.272	3.917	136.356	135.099	16.324	16.631	67779.417	55.157
526.099	23.743	147.111	711.705	335.386	3.909	136.209	134.977	16.577	17.085	67773.118	53.813
526.300	23.779	147.199	712.175	335.194	3.904	136.120	134.831	16.617	17.085	67780.274	54.921
526.500	23.827	147.148	712.069	335.174	3.894	136.106	134.860	16.769	17.065	67778.236	54.334
526.701	23.804	147.243	711.520	335.560	3.910	136.278	134.927	17.109	16.933	67783.387	54.356
526.902	23.700	147.131	711.184	335.395	3.899	136.043	134.786	16.748	16.933	67775.342	53.786
527.104	23.752	147.257	710.581	335.386	3.922	136.043	134.727	16.778	16.908	67771.614	54.455
527.303	23.694	147.250	709.611	335.183	3.909	135.969	134.679	16.728	16.895	67768.437	53.802
527.504	23.712	147.227	708.781	335.036	3.892	136.117	134.844	17.232	16.895	67767.070	53.660
527.704	23.738	147.234	708.564	335.796	3.925	135.991	134.804	16.602	16.782	67756.082	54.121
527.905	23.746	147.248	708.568	335.587	3.929	136.067	134.803	16.645	16.782	67756.818	53.923
528.106	23.623	147.361	708.329	335.859	3.923	136.014	134.825	16.633	16.781	67750.802	54.652
528.305	23.702	147.441	708.822	334.598	3.929	135.932	134.744	16.720	16.668	67754.877	54.888
528.505	23.615	147.379	708.608	335.291	3.956	135.972	134.657	16.730	16.668	67747.519	53.797
528.705	23.691	147.435	709.193	335.303	3.922	136.092	134.983	16.655	16.688	67748.732	54.587
528.905	23.672	147.480	709.449	335.027	3.892	136.714	135.561	16.617	16.744	67751.093	55.042
529.105	23.658	147.401	709.835	335.551	3.908	137.591	136.400	17.195	16.745	67752.921	54.329
529.306	23.570	147.557	710.647	335.881	3.905	139.440	138.313	17.130	16.981	67756.017	55.755
529.506	23.663	147.447	712.198	335.664	3.982	141.489	140.421	17.665	17.047	67755.039	55.579
529.707	23.620	147.713	713.916	335.657	4.041	144.523	143.391	18.419	17.048	67888.305	57.932
529.909	23.650	147.613	716.731	335.939	4.122	148.299	147.117	18.813	17.729	67882.176	58.211
530.109	23.563	147.745	719.364	336.037	4.227	152.627	151.402	19.397	17.729	67892.323	59.193
530.309	23.624	147.950	722.357	337.036	4.403	156.765	155.528	20.381	17.729	68278.245	61.195
530.509	23.679	147.985	725.673	337.194	4.491	160.278	159.056	20.865	18.978	68274.962	61.101
530.710	23.706	148.243	728.083	337.058	4.572	164.541	163.363	21.451	18.978	68826.889	63.898
530.909	23.602	148.606	731.142	337.681	4.724	168.730	167.327	22.140	19.643	68985.882	66.097
531.109	23.588	148.779	734.797	337.833	4.867	172.606	171.147	22.605	20.870	68984.961	67.704
531.310	23.576	149.105	738.128	338.199	5.052	175.941	174.583	23.448	20.871	69953.655	68.910
531.510	23.701	149.303	740.620	337.793	5.232	179.078	177.577	23.633	21.136	69958.296	70.742
531.710	23.610	149.660	743.515	338.710	5.297	181.518	179.983	23.882	21.288	70290.579	71.592
531.910	23.591	150.059	746.506	339.399	5.377	183.707	182.096	24.353	21.288	71036.283	73.358
532.110	23.558	150.549	749.365	339.586	5.508	185.427	183.733	24.485	21.660	71037.075	74.273
532.312	23.633	150.858	752.241	340.027	5.582	186.877	185.053	24.512	21.706	72076.421	74.328
532.511	23.634	151.346	755.201	339.912	5.608	187.880	186.047	24.684	21.705	72089.940	74.646
532.712	23.528	151.763	758.967	340.179	5.627	189.406	187.352	24.904	22.121	72098.009	74.899
532.912	23.587	152.170	761.441	340.947	5.671	190.292	188.244	25.074	22.121	73011.787	75.425
533.112	23.662	152.604	763.151	340.768	5.718	191.032	188.942	25.280	22.122	73018.603	76.324
533.311	23.470	153.199	764.279	340.678	5.750	191.465	189.449	25.416	22.839	73518.110	76.412
533.512	23.567	153.565	765.121	340.389	5.743	191.443	189.416	25.289	22.841	73815.730	76.555
533.712	23.468	154.148	765.746	340.604	5.784	191.494	189.460	25.545	22.850	73813.369	76.132
533.913	23.462	154.500	766.664	340.598	5.775	191.652	189.672	25.322	22.954	74455.255	77.174
534.112	23.550	154.869	768.138	341.497	5.769	192.296	190.252	25.634	22.955	74454.924	76.659
534.314	23.515	155.362	769.478	340.946	5.766	192.895	190.802	25.774	22.909	74546.549	76.807
534.513	23.435	155.870	770.045	340.887	5.834	192.917	190.931	25.631	22.878	74961.158	77.503
534.713	23.494	156.170	770.000	340.977	5.810	193.281	191.159	25.646	22.879	74958.312	77.257
534.914	23.399	156.735	771.609	341.219	5.813	193.487	191.496	25.711	22.878	75368.669	77.476
535.114	23.454	157.113	772.815	341.193	5.846	193.507	191.633	25.805	22.879	75379.075	78.359
535.315	23.383	157.545	774.081	341.821	5.866	193.935	192.102	25.852	22.879	75375.380	78.293
535.514	23.418	157.845	775.579	341.470	5.846	194.294	192.278	25.878	22.879	75717.042	77.975
535.714	23.411	158.395	777.457	342.445	5.856	194.442	192.561	26.060	22.879	75715.247	78.617
535.916	23.356	158.690	777.989	341.660	5.830	195.099	193.082	26.118	22.879	75858.692	79.286
536.115	23.440	159.097	779.137	342.523	5.859	195.521	193.443	26.186	22.993	76003.124	79.401
536.315	23.323	159.431	778.810	342.429	5.859	195.994	193.880	26.168	22.993	75996.567	78.765
536.515	23.321	159.936	778.975	342.452	5.884	196.012	193.924	26.454	22.992	76246.903	79.417
536.715	23.353	160.140	778.624	343.151	5.892	196.016	193.839	26.046	22.879	76247.849	79.242
536.916	23.466	160.693	778.144	342.534	5.921	196.156	194.138	26.278	22.879	76263.268	80.119
537.117	23.186	161.041	778.925	343.123	5.935	196.120	194.066	26.244	22.879	76454.806	80.004
537.317	23.468	161.307	779.068	343.261	5.924	196.131	194.101	26.234	22.955	76457.894	79.735
537.517	23.377	161.588	779.674	343.269	5.942	196.202	194.121	26.336	22.954	76582.557	80.097
537.718	23.345	162.024	780.500	343.596	5.932	196.452	194.411	26.465	22.980	76617.397	80.306
537.917	23.257	162.411	780.617	343.591	5.956	196.686	194.679	26.259	23.030	76614.050	80.580
538.117	23.327	162.596	780.650	344.117	5.974	196.554	194.543	26.411	23.031	76747.906	79.911
538.317	23.224	163.099	781.079	343.713	5.953	196.722	194.684	26.694	23.105	76745.076	80.371
538.517	23.295	163.326	780.444	343.562	5.965	196.715	194.707	26.550	23.144	76786.070	80.437
538.717	23.293	163.549	779.872	343.937	5.952	196.701	194.709	26.360	23.144	76855.565	79.883
538.917	23.258	164.024	780.169	344.485	5.972	196.827	194.794	26.454	23.180	76855.217	81.117
539.119	23.197	164.374	780.382	344.011	5.967	196.772	194.641	26.350	23.181	76941.425	81.781
539.318	23.260	164.634	779.567	344.097	5.957	196.688	194.559	26.409	23.182	76944.999	80.706
539.519	23.204	164.756	779.373	344.687	5.975	196.505	194.598	26.501	23.219	76940.228	80.152
539.721	23.236	165.073	778.920	344.805	5.962	196.723	194.773	26.527	23.219	77011.486	80.656
539.921	23.154	165.449	779.198	344.849	5.940	196.689	194.674	26.359	23.218	77009.618	80.870
540.121	23.227	165.669	778.641	345.332	5.961	196.576	194.555	26.383	23.219	77053.029	80.300
540.321	23.159	166.043	779.208	345.611	5.937	196.641	194.618	26.410	23.219	77063.654	81.583
540.522	23.282	166.253	778.780	345.609	5.934	196.700	194.490	26.288	23.233	77066.209	80.514
540.721	23.196	166.604	778.192	345.426	5.942	196.634	194.541	26.353	23.333	77100.969	80.536
540.921	23.227	166.758	777.809	345.657	5.967	196.367	194.287	26.489	23.334	77100.936	79.971
541.121	23.168	167.098	777.533	346.108	5.953	196.238	194.082	26.270	23.217	77105.472	80.843
541.321	23.327	167.400	777.137	345.991	5.928	196.395	194.257	26.318	23.069	77127.004	81.890
541.522	23.218	167.538	777.371	346.189	5.827	195.924	193.762	26.188	23.069	77126.551	81.364
541.721	23.123	167.868	777.227	345.827	5.852	196.088	193.772	26.093	23.155	77132.874	81.808
541.922	23.182	168.133	777.313	346.324	5.842	196.096	193.762	26.039	23.181	77133.715	80.986
542.121	23.186	168.211	777.652	347.328	5.851	196.155	193.972	26.039	23.181	77130.570	80.552
542.321	23.138	168.618	778.803	346.370	5.927	196.335	194.153	26.228	23.255	77145.576	81.134
542.521	23.203	168.588	779.323	346.106	5.938	196.468	194.333	26.370	23.257	77146.361	80.547
542.721	23.164	169.015	779.807	346.767	5.832	196.249	193.965	26.050	23.257	77154.600	81.380
542.922	23.135	169.072	779.824	346.783	5.836	196.249	193.802	26.094	23.219	77160.122	80.377
543.122	23.141	169.459	780.896	346.515	5.833	196.353	193.976	26.038	23.218	77164.278	81.665
543.324	23.163	169.504	781.027	347.277	5.822	196.272	194.049	26.251	23.219	77172.445	80.569
543.523	23.144	169.855	782.011	346.580	5.842	196.379	194.027	26.166	23.218	77172.121	81.315
543.724	23.135	170.025	782.388	346.825	5.944	196.508	194.230	26.398	23.218	77170.213	80.075
543.926	23.184	170.261	781.991	346.938	5.914	196.175	194.062	26.442	23.223	77188.236	81.293
544.126	23.219	170.432	782.088	347.130	5.907	195.925	193.809	26.144	23.258	77186.319	81.150
544.325	23.156	170.628	782.311	346.919	5.798	195.846	193.392	26.004	23.258	77182.260	81.293
544.525	23.130	170.918	782.272	347.361	5.830	196.150	193.800	25.993	23.277	77183.845	82.186
544.725	23.144	171.050	782.607	347.519	5.821	196.557	194.166	26.084	23.295	77183.069	82.077
544.926	23.112	171.165	782.771	347.574	5.850	196.660	194.173	25.920	23.294	77184.710	80.695
545.125	23.158	171.394	782.281	346.781	5.833	196.974	194.496	25.896	23.233	77191.559	81.731
545.325	23.059	171.659	782.521	347.261	5.851	197.186	194.674	26.407	23.218	77200.081	81.490
545.526	23.169	171.788	782.101	347.563	5.879	197.081	194.647	26.360	23.219	77221.411	81.353
545.726	23.177	172.005	781.912	346.391	5.877	196.911	194.502	26.250	23.219	77223.278	81.687
545.925	23.092	172.223	781.751	346.802	5.880	196.787	194.404	26.213	23.219	77253.550	81.748
546.125	23.118	172.403	781.264	346.958	5.955	196.751	194.519	26.528	23.219	77252.960	81.007
546.326	23.139	172.498	780.827	346.751	5.908	196.630	194.507	26.443	23.182	77252.976	81.243
546.525	23.129	172.480	781.264	346.914	5.902	196.257	194.229	26.547	23.182	77263.002	80.640
546.727	23.007	172.686	779.940	347.233	5.835	196.168	193.798	26.148	23.180	77261.280	80.300
546.928	23.160	172.838	779.924	346.861	5.853	196.080	193.756	26.126	23.144	77256.979	80.684
547.127	23.031	173.104	780.257	347.367	5.824	196.204	193.896	26.080	23.144	77253.809	81.622
547.327	23.040	173.132	780.220	346.966	5.822	196.077	193.814	26.201	23.095	77250.890	80.437
547.528	23.127	173.306	780.862	346.973	5.847	196.139	193.770	26.111	23.031	77253.696	81.243
547.727	23.070	173.557	781.911	347.309	5.882	196.184	193.986	26.186	23.030	77252.241	81.731
547.927	23.132	173.621	781.762	347.148	5.923	196.096	193.911	25.872	23.186	77254.286	82.038
548.129	23.045	173.737	783.095	347.212	5.915	196.482	194.235	26.247	23.219	77241.762	81.243
548.329	23.058	173.848	782.615	347.672	5.928	196.273	194.139	26.025	23.219	77243.104	81.134
548.529	23.153	174.070	783.593	347.597	5.955	195.845	193.692	26.160	23.107	77242.635	81.419
548.729	23.152	174.112	783.537	347.771	5.845	195.802	193.460	26.154	23.106	77239.021	80.015
548.931	23.085	174.439	784.005	347.483	5.808	195.883	193.516	26.018	23.106	77241.430	81.989
549.130	23.151	174.431	783.722	347.736	5.826	195.951	193.523	25.964	23.220	77228.073	81.315
549.332	23.121	174.491	784.299	348.106	5.844	195.798	193.526	25.885	23.219	77225.219	80.865
549.531	23.117	174.621	784.720	347.802	5.850	195.998	193.654	25.962	23.187	77222.001	80.618
549.731	23.121	174.836	785.406	348.158	5.847	195.900	193.614	26.023	23.068	77219.373	81.709
549.931	23.102	174.973	785.808	348.347	5.857	195.889	193.484	26.114	23.068	77216.972	80.810
550.131	23.063	175.180	785.550	348.441	5.919	196.186	193.957	26.130	23.047	77215.759	81.227
550.331	23.162	175.195	785.682	348.551	5.932	195.731	193.702	26.078	23.030	77216.373	80.903
550.531	23.067	175.402	786.480	348.423	5.935	195.559	193.486	26.038	23.030	77216.317	82.110
550.731	23.085	175.410	786.187	348.465	5.897	195.865	193.604	26.142	23.067	77204.827	81.101
550.932	23.141	175.474	786.952	348.969	5.900	196.047	193.813	25.947	23.068	77204.261	81.128
551.133	23.200	175.740	786.471	348.749	5.883	196.181	193.914	26.171	23.069	77192.101	80.991
551.332	23.180	175.996	786.962	349.054	5.885	196.237	193.938	26.093	23.144	77195.092	82.570
551.533	23.141	175.973	786.840	349.512	5.907	196.362	194.140	26.276	23.144	77188.389	81.704
551.732	23.174	176.149	787.240	348.906	5.930	195.896	193.770	26.052	23.144	77194.979	82.170
551.934	23.253	176.067	787.246	349.057	5.886	195.732	193.639	25.977	23.144	77197.146	80.942
552.133	23.183	176.328	787.995	348.751	5.882	195.993	193.680	26.004	23.144	77197.332	82.186
552.334	23.155	176.347	788.755	349.453	5.820	196.108	193.652	25.968	23.117	77189.909	81.929
552.534	23.100	176.386	789.055	349.581	5.847	196.042	193.700	26.012	23.030	77188.244	81.671
552.734	23.110	176.631	789.314	349.434	5.843	196.013	193.634	26.062	23.030	77197.639	82.307
552.935	23.166	176.610	788.809	349.085	5.828	195.873	193.543	26.077	23.076	77202.393	81.846
553.134	23.115	176.686	788.384	349.699	5.849	195.976	193.493	25.930	23.105	77194.720	81.265
553.334	23.154	176.830	788.350	349.646	5.852	196.038	193.616	25.757	23.106	77209.937	82.093
553.534	23.131	176.975	787.478	349.489	5.876	195.891	193.505	25.972	23.106	77203.816	81.210
553.734	23.191	177.077	787.871	348.855	5.837	195.985	193.560	25.894	23.106	77213.737	82.510
553.936	23.094	177.018	788.250	349.867	5.828	195.796	193.539	26.187	23.106	77209.743	81.709
554.135	23.063	177.305	788.561	349.365	5.813	195.848	193.459	25.867	23.030	77214.069	82.675
554.336	23.176	177.299	789.030	348.946	5.841	195.940	193.477	26.057	23.031	77216.098	81.156
554.535	23.174	177.452	789.384	349.044	5.842	195.685	193.521	25.839	23.030	77220.521	82.175
554.735	23.074	177.469	789.311	348.903	5.846	195.912	193.413	25.967	22.993	77212.646	81.260
554.936	23.144	177.624	788.606	349.664	5.859	195.716	193.409	25.935	22.993	77218.969	82.252
555.136	23.110	177.730	789.326	350.289	5.842	195.802	193.451	25.896	23.021	77213.026	80.980
555.336	23.195	177.816	788.793	349.578	5.848	195.787	193.421	26.020	23.069	77217.489	81.331
555.538	23.115	177.845	789.896	349.153	5.931	196.024	193.782	26.396	23.068	77213.374	81.402
555.737	23.157	178.038	789.482	349.151	5.895	195.862	193.593	26.213	23.037	77218.670	82.362
555.938	23.055	178.158	789.343	349.679	5.931	195.969	193.662	25.979	23.030	77213.123	81.649
556.137	23.210	178.132	789.540	349.612	5.850	195.619	193.244	25.863	23.031	77216.511	82.285
556.337	23.213	178.270	788.577	349.556	5.826	195.655	193.353	25.924	22.993	77212.597	82.505
556.539	23.281	178.320	789.079	349.787	5.856	195.506	193.106	25.899	22.993	77205.725	82.071
556.738	23.160	178.382	789.780	349.637	5.827	195.679	193.308	25.901	22.993	77206.266	81.358
556.939	23.214	178.503	789.597	349.605	5.839	195.771	193.377	25.836	22.955	77201.811	81.715
557.138	23.121	178.597	790.841	349.954	5.823	195.774	193.361	25.890	22.955	77198.666	81.046
557.338	23.129	178.682	791.482	349.784	5.853	195.746	193.361	25.762	22.954	77196.709	81.232
557.538	23.164	178.861	791.689	350.187	5.843	195.729	193.302	25.793	22.954	77200.566	82.417
557.738	23.166	178.799	792.418	349.703	5.860	195.649	193.291	25.839	22.954	77199.442	81.556
557.939	23.264	179.016	792.983	349.369	5.872	195.685	193.376	26.063	22.935	77204.512	81.655
558.139	23.270	178.923	792.409	349.980	5.860	195.750	193.356	25.963	22.917	77203.000	81.249
558.339	23.163	179.162	793.448	350.079	5.841	195.702	193.271	25.837	22.917	77202.393	81.342
558.539	23.110	179.207	793.506	349.770	5.846	195.654	193.184	26.062	22.916	77198.965	80.651
558.739	23.244	179.158	793.816	350.053	5.870	195.504	193.145	25.856	22.917	77204.035	81.846
558.940	23.143	179.243	794.052	349.954	5.831	195.524	193.174	25.936	22.916	77196.976	81.430
559.140	23.136	179.421	793.966	349.337	5.827	195.471	193.150	25.915	22.992	77199.523	82.373
559.340	23.132	179.301	793.950	349.915	5.841	195.457	193.097	25.808	22.993	77197.477	81.852
559.540	23.186	179.450	793.950	350.239	5.820	195.536	193.145	25.599	22.993	77195.707	81.655
559.740	23.164	179.545	794.272	350.226	5.844	195.346	193.033	25.729	23.030	77191.284	81.177
559.940	23.197	179.682	794.604	349.928	5.813	195.517	193.135	25.868	23.031	77195.189	81.594
560.140	23.155	179.728	794.832	349.713	5.811	195.443	193.168	25.844	23.025	77186.780	81.852
560.341	23.217	179.938	795.130	349.805	5.826	195.382	193.004	25.906	22.955	77191.171	82.077
560.540	23.127	179.889	795.754	350.119	5.903	195.363	193.201	26.163	22.954	77188.195	82.510
560.740	23.205	179.790	795.642	349.831	5.885	195.233	193.056	25.755	22.903	77186.376	81.709
560.940	23.164	179.892	795.182	349.840	5.889	195.109	192.892	25.883	22.841	77187.969	81.726
561.140	23.195	180.010	795.419	350.100	5.803	194.660	192.324	25.761	22.841	77177.425	81.709
561.341	23.093	180.088	795.629	350.837	5.809	195.036	192.679	25.785	22.951	77170.633	81.852
561.542	23.194	180.076	795.230	350.540	5.799	195.158	192.707	25.750	22.955	77169.307	80.640
561.741	23.087	180.191	795.291	350.755	5.812	195.214	192.951	25.798	22.953	77154.495	81.194
561.943	23.212	180.193	795.147	350.518	5.839	195.289	193.042	25.886	22.917	77157.333	81.528
562.142	23.032	180.305	794.537	350.681	5.838	195.397	192.995	25.837	22.916	77153.541	82.170
562.342	23.186	180.338	794.976	350.883	5.850	195.382	193.053	25.818	22.917	77160.357	82.181
562.543	23.132	180.509	794.737	351.232	5.838	195.511	193.122	25.825	23.030	77153.864	82.488
562.743	23.241	180.469	794.465	350.864	5.863	195.468	193.171	25.986	23.031	77167.359	81.912
562.943	23.112	180.545	794.505	350.777	5.850	195.591	193.211	25.848	23.030	77162.799	82.170
563.144	23.199	180.633	794.950	350.570	5.849	195.508	193.222	25.795	23.144	77171.345	82.367
563.343	23.234	180.603	795.658	350.806	5.844	195.563	193.170	25.719	23.144	77169.388	81.419
563.544	23.234	180.795	795.374	350.987	5.842	195.605	193.140	25.860	23.119	77174.806	81.605
563.744	23.140	180.757	795.781	351.001	5.854	195.568	193.175	25.817	23.030	77172.525	80.656
563.944	23.232	180.805	796.062	350.862	5.822	195.440	193.029	25.804	23.030	77176.390	80.377
564.146	23.248	180.842	796.387	350.834	5.838	195.453	193.067	25.801	23.031	77176.641	81.320
564.345	23.329	180.884	796.871	351.011	5.857	195.474	193.170	25.700	23.031	77184.597	81.786
564.546	23.180	181.058	797.029	351.499	5.836	195.523	193.172	25.716	23.030	77180.231	82.373
564.746	23.218	181.059	797.073	351.091	5.840	195.446	193.087	25.754	23.095	77183.732	82.115
564.946	23.166	181.195	797.548	350.678	5.825	195.587	193.255	25.684	23.105	77188.187	82.609
565.147	23.226	181.192	798.047	351.172	5.816	195.493	193.152	25.869	23.106	77184.185	81.205
565.348	23.333	181.190	797.905	350.816	5.831	195.608	193.167	25.779	23.106	77191.106	81.419
565.547	23.276	181.217	797.907	350.768	5.851	195.619	193.242	25.879	23.106	77189.788	81.649
565.748	23.196	181.427	797.632	350.805	5.829	195.709	193.307	25.644	23.106	77192.658	82.795
565.950	23.163	181.457	798.203	351.496	5.851	195.538	193.256	25.975	23.106	77192.747	81.589
566.149	23.249	181.578	798.414	350.671	5.839	195.496	193.184	25.748	23.107	77198.027	82.565
566.349	23.284	181.494	798.394	351.371	5.823	195.484	193.248	25.608	23.107	77200.364	81.841
566.550	23.181	181.651	798.162	350.949	5.838	195.378	193.130	25.786	22.992	77196.968	82.104
566.750	23.205	181.675	799.316	351.179	5.813	195.545	193.143	26.007	22.992	77194.413	81.243
566.950	23.300	181.671	798.881	351.278	5.806	195.479	193.078	25.673	23.000	77204.302	81.808
567.150	23.184	181.787	798.873	351.462	5.798	195.739	193.148	25.597	23.030	77198.795	82.784
567.351	23.272	181.725	798.838	350.601	5.796	195.781	193.309	25.872	23.031	77203.938	82.165
567.550	23.152	181.834	798.918	351.503	5.814	195.505	193.209	25.890	23.050	77198.747	81.441
567.750	23.211	181.883	798.783	351.780	5.799	195.695	193.203	25.775	23.068	77202.660	82.675
567.951	23.233	181.970	798.884	350.827	5.829	195.638	193.146	25.787	23.069	77207.754	83.124
568.150	23.216	181.859	799.148	351.339	5.821	195.622	193.159	25.808	23.034	77206.671	81.057
568.351	23.171	181.999	799.704	351.338	5.824	195.773	193.278	26.024	23.030	77208.458	82.159
568.550	23.295	181.923	799.273	351.059	5.822	195.547	193.219	25.868	23.031	77211.190	81.353
568.750	23.217	181.909	800.006	351.016	5.818	195.552	193.196	25.983	22.955	77208.150	81.490
568.950	23.320	181.976	799.621	351.264	5.822	195.512	193.110	25.825	22.955	77218.290	81.320
569.150	23.243	182.047	799.684	351.028	5.835	195.763	193.225	25.836	22.954	77220.448	82.258
569.350	23.145	182.052	799.984	351.218	5.804	195.610	193.197	25.848	23.030	77212.686	80.925
569.550	23.189	182.069	799.352	351.041	5.773	195.636	193.213	25.874	23.030	77216.543	81.227
569.751	23.216	182.217	799.465	351.549	5.824	195.464	193.073	25.854	23.030	77224.370	81.846
569.951	23.239	182.332	799.167	351.397	5.818	195.444	193.086	25.859	22.916	77223.723	82.664
570.151	23.204	182.188	798.935	351.081	5.815	195.408	193.161	26.017	22.916	77220.246	81.128
570.351	23.134	182.326	798.388	351.214	5.811	195.547	193.090	25.691	22.928	77223.852	82.729
570.551	23.208	182.334	798.491	351.285	5.826	195.495	193.215	25.965	22.955	77227.329	82.038
570.751	23.166	182.514	798.722	351.183	5.843	195.556	193.119	25.900	22.954	77224.612	82.543
570.952	23.261	182.439	798.519	350.896	5.816	195.643	193.151	25.801	22.928	77227.313	81.737
571.152	23.110	182.431	798.694	351.692	5.904	195.552	193.247	26.088	22.916	77224.709	82.077
571.354	23.215	182.535	798.209	350.740	5.873	194.942	192.838	26.001	22.916	77228.356	81.457
571.553	23.281	182.463	797.558	350.949	5.807	195.108	192.793	25.991	22.917	77218.573	81.304
571.753	23.153	182.542	797.483	351.593	5.804	195.154	192.853	25.843	22.916	77213.972	81.282
571.954	23.131	182.585	796.992	352.043	5.779	195.222	192.882	25.798	22.916	77213.188	81.830
572.153	23.243	182.575	797.148	351.074	5.794	195.413	192.961	25.801	22.917	77206.088	80.996
572.353	23.162	182.683	798.070	351.625	5.805	195.463	193.069	25.662	22.916	77200.323	81.282
572.554	23.275	182.577	797.648	351.727	5.820	195.651	193.233	25.835	22.917	77205.846	81.644
572.754	23.185	182.723	797.653	351.630	5.818	195.721	193.290	26.003	22.992	77198.262	81.660
572.954	23.329	182.707	798.057	351.440	5.827	195.675	193.324	25.861	22.993	77202.668	81.479
573.154	23.306	182.741	797.596	351.631	5.844	195.705	193.248	25.899	22.975	77206.048	81.781
573.353	23.274	182.835	797.515	351.423	5.818	195.651	193.312	25.728	22.917	77207.972	81.600
573.553	23.306	182.837	797.442	351.779	5.836	195.749	193.350	25.925	22.917	77210.511	81.819
573.754	23.281	182.763	797.899	351.772	5.837	195.788	193.268	26.011	22.917	77212.670	81.364
573.954	23.203	182.897	797.910	351.735	5.829	195.827	193.308	25.985	22.916	77213.915	81.353
574.154	23.307	182.931	797.707	352.021	5.840	195.617	193.367	26.114	22.917	77220.974	81.594
574.355	23.289	182.932	797.828	352.093	5.832	195.764	193.350	25.948	22.952	77216.996	82.170
574.554	23.312	182.939	797.657	351.866	5.858	195.752	193.260	25.957	22.955	77218.807	82.318
574.853	23.232	183.102	798.075	352.340	5.850	195.793	193.310	26.205	22.954	77223.278	82.746
575.055	23.338	183.055	797.249	352.190	5.831	195.723	193.260	26.184	22.955	77224.709	82.082
575.254	23.237	183.112	797.606	352.083	5.845	195.627	193.282	25.911	22.955	77224.976	81.803
575.454	23.223	183.162	797.467	352.293	5.837	195.506	193.159	26.046	22.954	77225.146	81.775
575.656	23.216	183.244	797.547	351.970	5.825	195.645	193.201	26.091	22.954	77224.774	82.099
575.857	23.188	183.219	796.985	352.025	5.819	195.607	193.243	26.059	22.954	77218.475	81.868
576.058	23.287	183.237	796.318	351.827	5.831	195.458	193.140	25.941	22.842	77219.025	81.896
576.257	23.306	183.316	796.358	351.547	5.831	195.565	193.126	26.074	22.841	77220.667	81.660
576.458	23.224	183.493	795.539	351.978	5.816	195.520	193.150	26.102	22.841	77218.184	82.466
576.658	23.159	183.432	795.683	351.936	5.830	195.558	193.221	26.061	22.916	77213.026	82.888
576.859	23.215	183.510	795.212	351.987	5.824	195.533	193.127	26.093	22.916	77212.581	82.455
577.060	23.227	183.564	795.123	352.192	5.823	195.543	193.062	26.063	22.917	77213.010	82.400
577.260	23.300	183.512	794.487	352.160	5.844	195.468	193.094	26.092	22.955	77211.853	82.790
577.460	23.329	183.492	794.529	352.334	5.829	195.561	193.146	25.896	22.955	77207.633	81.781
577.660	23.301	183.599	795.254	352.357	5.846	195.597	193.083	25.944	22.967	77208.959	82.384
577.860	23.183	183.540	795.073	352.630	5.822	195.459	193.107	26.121	22.992	77201.027	81.561
578.061	23.303	183.515	795.112	352.084	5.825	195.546	193.167	25.810	22.993	77202.709	81.517
578.260	23.223	183.624	795.656	352.594	5.839	195.528	193.063	26.142	23.048	77199.604	81.545
578.460	23.251	183.709	795.457	352.081	5.832	195.658	193.125	26.039	23.068	77206.153	82.554
578.661	23.198	183.755	795.760	351.992	5.861	195.466	193.017	25.991	23.068	77203.347	81.468
578.860	23.289	183.696	795.138	352.172	5.830	195.443	192.937	26.016	22.994	77205.425	81.846
579.060	23.290	183.680	795.513	352.253	5.846	195.535	193.169	25.957	22.993	77202.684	80.717
579.260	23.209	183.782	795.412	352.267	5.834	195.501	193.064	25.964	22.992	77201.658	81.430
579.461	23.253	183.742	795.181	352.227	5.831	195.512	193.167	25.825	22.954	77199.693	81.068
579.660	23.308	183.763	795.402	351.823	5.818	195.536	193.114	26.003	22.955	77201.787	81.819
579.861	23.278	183.814	794.945	351.808	5.828	195.522	193.103	25.832	22.954	77203.105	82.406
580.060	23.292	183.923	795.235	351.987	5.834	195.704	193.300	25.970	22.841	77204.973	82.932
580.260	23.194	183.884	795.448	351.943	5.836	195.706	193.335	25.933	22.841	77197.833	81.918
580.461	23.196	183.945	795.358	352.402	5.849	195.589	193.197	25.899	22.831	77212.201	82.154
580.660	23.238	183.964	795.439	351.725	5.833	195.603	193.169	25.941	22.803	77211.296	82.252
580.861	23.206	183.958	795.921	352.504	5.830	195.708	193.316	26.082	22.803	77207.075	81.589
581.061	23.268	184.042	795.882	351.966	5.824	195.708	193.181	25.924	22.717	77214.352	82.378
581.260	23.281	184.058	795.943	351.894	5.820	195.660	193.207	26.015	22.651	77216.058	82.768
581.530	23.224	183.958	795.893	352.047	5.820	195.403	193.010	26.044	22.651	77211.562	80.936
581.729	23.209	184.138	796.121	352.171	5.802	195.167	192.780	25.927	22.840	77216.220	81.490
581.930	23.289	184.054	796.043	351.704	5.800	194.783	192.400	25.824	22.841	77220.262	81.846
582.130	23.333	184.020	796.108	351.581	5.800	194.597	192.085	25.639	22.841	77208.627	81.205
582.330	23.340	184.045	796.268	352.287	5.755	194.388	191.834	25.813	22.804	77208.466	81.984
582.529	23.182	184.107	796.884	352.353	5.756	193.931	191.500	25.821	22.803	77178.387	81.391
582.729	23.222	184.229	796.845	351.902	5.709	193.654	191.219	25.762	22.791	77175.291	81.561
582.929	23.226	184.245	796.546	351.947	5.710	193.255	190.846	25.567	22.689	77178.808	81.452
583.131	23.160	184.152	796.354	352.360	5.735	192.962	190.434	25.313	22.689	77119.864	80.168
583.330	23.310	184.065	796.311	352.190	5.717	192.468	190.152	25.431	22.689	77125.185	80.212
583.530	23.178	184.013	796.398	352.005	5.694	192.202	189.703	25.228	22.689	77094.306	79.615
583.732	23.260	184.170	796.488	352.556	5.693	191.633	189.343	25.365	22.689	77052.763	80.651
583.931	23.183	184.117	796.687	352.524	5.713	190.255	188.020	25.142	22.588	77048.033	78.776
584.132	23.256	184.025	795.975	352.446	5.701	185.773	183.316	24.455	22.538	76955.009	76.264
584.333	23.216	184.172	794.963	352.058	5.606	178.041	175.616	23.062	22.538	76954.087	73.599
584.534	23.220	184.077	792.511	351.546	5.382	168.877	166.641	21.996	21.596	76950.764	69.113
584.734	23.342	183.927	788.287	351.258	5.119	160.362	158.202	20.539	21.592	76546.593	65.373
584.934	23.190	183.873	782.810	350.498	4.866	152.340	150.224	18.806	21.591	76543.269	62.845
585.134	23.231	183.598	775.105	349.923	4.618	144.465	142.551	17.370	15.913	75750.508	61.661
585.335	23.307	183.226	767.235	349.668	4.337	136.650	134.933	16.043	15.912	75434.162	59.538
585.534	23.249	182.927	759.204	348.411	4.093	129.893	127.974	15.590	14.872	75435.205	57.466
585.734	23.192	182.394	750.576	348.188	3.875	123.839	121.976	14.750	12.319	73755.226	54.011
585.935	23.285	182.035	742.481	347.034	3.709	117.384	115.865	13.682	12.318	73760.240	53.375
586.135	23.158	181.547	734.827	346.226	3.553	111.672	110.178	12.939	11.092	73229.789	50.183
586.335	23.293	180.987	726.345	345.340	3.400	106.396	104.914	12.214	10.954	71715.062	49.048
586.536	23.256	180.405	717.798	345.230	3.221	101.477	100.167	11.730	10.954	71712.491	46.218
586.735	23.329	179.750	709.267	344.382	3.080	96.920	95.775	11.352	10.538	69479.277	44.464
586.936	23.429	179.215	701.949	343.880	2.943	92.777	91.740	10.895	10.538	69437.580	44.491
587.137	23.329	178.582	693.941	342.518	2.821	88.862	87.822	10.713	10.631	69432.058	43.888
587.338	23.459	177.928	686.167	341.947	2.690	85.292	84.329	10.275	11.295	67040.634	43.723
587.538	23.404	177.265	679.195	340.933	2.581	82.074	81.029	9.809	11.295	67033.495	42.446
587.738	23.476	176.668	672.156	340.448	2.467	78.754	77.772	9.372	11.518	65618.415	42.319
587.939	23.446	175.885	665.318	339.526	2.348	75.546	74.687	9.031	11.598	64620.798	40.104
588.138	23.580	175.161	658.816	338.505	2.274	72.820	71.970	8.703	11.598	64626.604	40.005
588.339	23.567	174.353	652.359	338.245	2.168	70.276	69.504	8.580	11.107	62274.694	38.525
588.540	23.575	173.712	646.105	337.723	2.081	68.005	67.205	8.335	11.106	62274.064	38.229
588.740	23.552	173.016	639.978	337.275	2.020	65.972	65.190	8.167	11.103	61915.697	37.357
588.941	23.613	172.236	634.772	336.579	1.966	64.218	63.478	7.943	10.954	60027.153	36.907
589.141	23.688	171.397	629.098	335.778	1.907	62.656	61.920	7.831	10.954	60024.250	35.322
589.341	23.657	170.793	624.170	335.294	1.854	61.210	60.424	7.668	10.885	58036.578	34.911
589.542	23.766	169.899	619.997	335.290	1.814	59.944	59.165	7.460	10.841	57920.664	34.302
589.742	23.834	169.103	615.453	334.470	1.780	58.764	57.983	7.230	10.841	57922.305	33.984
589.943	23.897	168.352	612.275	334.039	1.750	57.721	57.010	7.210	11.331	55996.948	33.326
590.142	23.933	167.671	608.580	333.471	1.699	56.848	56.120	7.146	11.333	55995.985	33.874
590.342	23.859	166.860	605.891	333.234	1.673	55.980	55.327	7.085	11.333	55203.822	32.767
590.544	23.938	166.113	603.001	333.185	1.654	55.280	54.623	6.886	11.031	54276.017	33.310
590.745	24.010	165.291	601.183	332.911	1.633	54.535	53.924	6.842	11.030	54275.596	32.366
590.945	24.068	164.422	599.736	332.327	1.609	53.996	53.379	6.815	10.838	52778.553	31.429
591.144	24.083	163.717	598.530	332.893	1.574	53.454	52.861	6.700	10.538	52777.535	31.845
591.345	24.123	162.970	597.215	332.160	1.551	52.958	52.395	6.654	10.538	52707.910	30.990
591.546	24.086	162.303	597.178	332.471	1.537	52.579	51.992	6.641	10.795	51493.521	31.303
591.745	24.127	161.627	596.083	332.081	1.517	52.221	51.694	6.609	10.803	51492.543	31.286
591.946	24.102	160.820	595.885	332.343	1.521	51.914	51.373	6.417	10.802	50623.915	30.233
592.147	24.112	160.164	594.921	331.691	1.501	51.613	51.028	6.510	10.954	50404.102	29.882
592.347	24.222	159.373	594.485	332.191	1.508	51.310	50.815	6.523	10.954	50404.975	29.411
592.548	24.219	158.810	594.323	331.348	1.496	51.117	50.612	6.449	11.001	49502.121	30.485
592.747	24.307	158.169	594.394	332.326	1.482	50.893	50.431	6.463	11.143	49503.229	30.518
592.947	24.323	157.353	595.139	332.747	1.469	50.712	50.236	6.530	11.144	49237.636	28.934
593.148	24.247	156.808	595.262	332.189	1.469	50.595	50.075	6.413	10.985	48747.467	29.454
593.348	24.264	156.195	595.740	331.996	1.455	50.441	49.981	6.360	10.954	48750.572	29.553
593.548	24.353	155.440	595.244	331.909	1.447	50.306	49.849	6.350	10.954	48140.333	28.868
593.748	24.305	154.840	596.824	332.097	1.434	50.185	49.730	6.349	10.575	48134.374	28.615
593.949	24.371	154.195	596.522	332.073	1.440	50.150	49.663	6.199	10.576	48134.487	28.857
594.148	24.419	153.566	597.041	332.458	1.443	50.084	49.654	6.272	10.593	47637.688	28.780
594.349	24.374	153.131	598.273	331.789	1.432	50.003	49.535	6.222	10.878	47639.208	29.685
594.549	24.419	152.498	598.932	332.099	1.447	49.939	49.502	6.213	10.878	47370.583	29.164
594.750	24.401	151.907	599.791	332.269	1.442	49.903	49.456	6.267	11.103	47238.773	29.361
594.951	24.419	151.321	600.725	332.561	1.428	49.921	49.432	6.099	11.219	47234.172	29.142
595.151	24.530	150.668	601.474	332.560	1.423	49.849	49.433	6.274	11.219	46925.823	29.816
595.350	24.521	150.167	601.858	332.545	1.420	49.883	49.419	5.992	10.804	46925.354	29.537
595.550	24.586	149.522	603.249	332.478	1.429	49.901	49.455	6.180	10.803	46867.841	28.873
595.752	24.547	149.127	604.272	332.709	1.429	49.951	49.508	6.101	10.803	46679.473	29.630
595.951	24.606	148.508	605.496	332.449	1.423	49.953	49.504	5.886	10.766	46678.284	29.131
596.151	24.547	148.019	606.412	332.402	1.419	50.023	49.575	5.982	10.765	46506.782	29.444
596.351	24.561	147.504	607.468	332.741	1.419	50.035	49.584	6.069	10.932	46496.069	29.762
596.552	24.569	146.961	607.713	332.739	1.440	50.097	49.648	6.029	11.106	46491.986	28.934
596.752	24.677	146.341	608.852	332.694	1.445	50.085	49.686	6.158	11.107	46363.927	28.857
596.951	24.619	145.872	610.261	333.314	1.425	50.151	49.710	6.102	11.031	46361.453	28.369
597.151	24.619	145.457	610.912	333.175	1.428	50.197	49.725	6.062	11.030	46318.575	29.444
597.352	24.637	145.035	611.907	333.900	1.427	50.309	49.827	6.061	11.031	46268.413	29.016
597.553	24.623	144.495	612.296	333.169	1.429	50.361	49.952	6.146	10.954	46267.054	28.912
597.752	24.653	144.022	613.154	333.188	1.414	50.396	49.934	6.050	10.954	46212.089	29.125
597.952	24.730	143.429	614.434	333.647	1.388	50.440	49.980	6.001	10.955	46211.766	28.983
598.152	24.637	142.963	614.573	333.573	1.403	50.470	50.040	6.067	10.954	46205.702	28.210
598.353	24.646	142.620	615.325	333.219	1.426	50.525	50.098	6.114	10.954	46177.265	28.961
598.553	24.725	142.135	615.812	332.869	1.424	50.554	50.117	6.016	11.135	46180.701	29.087
598.753	24.742	141.609	616.748	333.681	1.433	50.602	50.167	6.196	11.144	46164.457	28.775
598.953	24.735	141.352	617.720	333.808	1.458	49.781	49.368	6.243	11.144	46159.460	29.005
599.153	24.803	140.857	617.847	332.818	1.652	38.657	37.917	4.798	10.841	46159.654	26.970
599.354	24.772	140.255	614.899	332.723	1.446	34.574	33.915	4.338	10.841	46036.690	24.185
599.553	24.679	139.762	608.957	331.668	1.281	30.953	30.355	3.798	10.841	46038.153	23.686
599.753	24.711	139.261	600.957	330.202	1.187	27.829	27.328	3.333	-0.183	45662.524	21.295
599.953	24.660	138.898	592.012	328.624	1.082	25.063	24.642	3.022	-0.210	44772.389	21.415
600.154	24.735	138.394	582.589	327.147	0.971	22.902	22.434	2.704	-0.211	44774.992	20.083
600.354	24.743	137.831	573.497	325.494	0.879	20.935	20.560	2.363	-0.211	42688.216	18.882
600.553	24.700	137.471	564.535	324.411	0.775	19.121	18.784	2.171	-0.211	42657.313	18.750
600.753	24.645	136.994	555.796	323.734	0.741	17.638	17.339	1.959	-0.211	42654.677	18.163
600.953	24.643	136.486	547.057	322.628	0.693	16.262	16.003	1.795	-0.212	40129.665	16.979
601.153	24.758	135.895	538.583	320.883	0.660	15.074	14.824	1.650	-0.211	40128.873	16.381
601.353	24.680	135.452	530.737	320.124	0.612	13.957	13.750	1.490	-0.211	38733.724	15.756
601.553	24.796	134.974	522.869	318.494	0.563	12.952	12.741	1.358	-0.211	37470.191	16.052
601.753	24.778	134.452	515.198	317.609	0.535	12.085	11.889	1.285	-0.212	37465.186	15.186
601.953	24.859	134.006	508.074	316.101	0.498	11.313	11.132	1.153	-0.212	34840.754	15.021
602.154	24.829	133.535	501.216	314.730	0.447	10.578	10.428	1.079	-0.211	34831.319	14.100
602.353	24.814	133.244	494.586	313.242	0.430	9.940	9.797	0.995	-0.212	34730.516	15.509
602.554	24.804	132.690	488.150	312.632	0.409	9.366	9.247	0.956	-0.212	32310.778	14.155
602.755	24.913	132.237	481.429	310.940	0.400	8.862	8.731	0.882	-0.211	32312.395	14.243
602.956	24.890	131.766	476.047	310.445	0.376	8.382	8.264	0.821	-0.211	30437.492	13.617
603.157	24.970	131.432	469.556	309.455	0.360	7.909	7.810	0.758	-0.212	29962.532	14.012
603.358	24.917	130.985	464.038	308.875	0.341	7.474	7.394	0.703	-0.212	29955.748	12.795
603.558	24.942	130.529	459.004	307.049	0.322	7.097	7.008	0.646	-0.212	27787.591	13.085
603.759	25.006	130.205	453.629	306.412	0.314	6.759	6.664	0.615	-0.212	27787.607	13.464
603.958	25.120	129.775	448.309	305.452	0.307	6.391	6.331	0.583	-0.212	27074.416	13.722
604.158	25.060	129.412	443.599	304.658	0.278	6.079	6.005	0.550	-0.212	25813.883	13.475
604.358	25.069	128.954	438.433	303.661	0.273	5.791	5.752	0.523	-0.212	25811.109	13.053
604.559	25.041	128.583	433.519	303.285	0.263	5.536	5.470	0.482	-0.212	24041.997	12.937
604.759	25.164	128.238	429.014	301.781	0.243	5.276	5.219	0.452	-0.212	24022.252	13.321
604.959	25.229	127.729	424.479	301.250	0.244	5.022	4.979	0.429	-0.212	24020.740	12.312
605.158	25.166	127.490	420.867	300.394	0.219	4.831	4.775	0.409	-0.212	22396.148	12.981
605.359	25.215	126.998	415.631	299.030	0.218	4.608	4.553	0.381	-0.212	22392.364	11.714
605.559	25.307	126.733	412.268	298.279	0.206	4.391	4.362	0.362	-0.212	21593.927	12.713
605.760	25.247	126.325	408.128	297.468	0.197	4.224	4.205	0.346	-0.212	20929.693	11.797
605.961	25.276	125.950	404.163	297.282	0.191	4.053	4.043	0.333	-0.212	20930.930	11.561
606.161	25.379	125.568	400.392	295.991	0.179	3.906	3.869	0.310	-0.212	19615.246	11.714
606.361	25.388	125.380	397.036	295.403	0.177	3.760	3.738	0.298	-0.212	19613.855	12.477
606.562	25.463	125.009	393.332	294.104	0.171	3.607	3.596	0.289	-0.212	19509.843	12.290
606.762	25.541	124.659	389.670	293.723	0.169	3.461	3.444	0.277	-0.212	18420.836	12.323
606.962	25.487	124.353	386.579	293.096	0.162	3.337	3.337	0.259	-0.212	18415.726	11.687
607.162	25.510	123.981	382.814	292.691	0.158	3.224	3.204	0.253	-0.212	17563.787	11.506
607.361	25.522	123.705	379.782	291.750	0.154	3.098	3.106	0.242	-0.212	17347.984	11.534
607.561	25.580	123.496	376.406	290.492	0.151	2.990	2.988	0.231	-0.212	17351.211	12.186
607.761	25.676	123.095	373.485	290.755	0.141	2.880	2.885	0.216	-0.212	16377.196	11.259
607.961	25.651	122.930	371.019	289.961	0.136	2.787	2.782	0.205	-0.212	16377.867	12.224
608.162	25.701	122.549	368.120	288.928	0.135	2.703	2.699	0.210	-0.211	16162.048	11.457
608.361	25.734	122.406	364.847	288.616	0.131	2.605	2.618	0.194	-0.212	15497.192	12.175
608.561	25.813	122.020	362.320	287.641	0.126	2.513	2.518	0.181	-0.212	15500.006	12.049
608.762	25.800	121.673	358.978	287.282	0.122	2.434	2.451	0.179	-0.212	14711.012	11.385
608.961	25.842	121.507	356.443	286.768	0.121	2.357	2.364	0.176	-0.211	14695.715	12.449
609.162	25.933	121.113	353.658	285.932	0.113	2.280	2.298	0.173	-0.212	14692.780	11.364
609.362	25.844	120.860	351.165	285.476	0.113	2.209	2.229	0.165	-0.211	13965.883	11.226
609.563	25.888	120.670	348.698	284.504	0.109	2.153	2.167	0.162	-0.212	13967.783	11.901
609.762	25.948	120.410	346.286	283.783	0.103	2.066	2.102	0.156	-0.212	13648.259	12.224
609.962	25.970	119.985	344.623	283.818	0.098	2.014	2.036	0.154	-0.212	13299.992	10.952
610.163	26.008	119.780	341.410	282.750	0.096	1.962	1.983	0.149	-0.211	13299.790	11.128
610.362	26.063	119.493	338.850	282.183	0.096	1.895	1.945	0.148	-0.212	12688.750	10.930
610.563	26.038	119.300	336.898	281.756	0.095	1.861	1.879	0.137	-0.212	12686.034	10.925
610.763	26.135	119.128	334.515	281.204	0.090	1.810	1.835	0.133	-0.212	12685.726	12.219
610.962	26.249	118.788	332.439	280.939	0.089	1.758	1.780	0.131	-0.211	12128.028	11.325
611.162	26.270	118.573	330.136	279.897	0.086	1.696	1.728	0.135	-0.211	12127.656	11.336
611.363	26.297	118.335	327.787	279.349	0.087	1.651	1.689	0.124	-0.211	11792.616	11.276
611.563	26.270	118.115	325.894	279.172	0.084	1.620	1.667	0.125	-0.212	11609.325	10.991
611.763	26.316	117.881	323.437	279.003	0.082	1.570	1.612	0.120	-0.212	11608.848	10.607
611.963	26.313	117.776	322.031	278.107	0.081	1.532	1.577	0.114	-0.212	11131.932	11.528
612.164	26.388	117.534	319.901	277.340	0.080	1.487	1.530	0.116	-0.212	11132.781	12.005
612.364	26.376	117.293	317.457	276.786	0.078	1.456	1.508	0.110	-0.212	11106.438	12.044
612.563	26.509	117.000	315.890	275.941	0.076	1.412	1.451	0.111	-0.211	10690.438	11.270
612.764	26.458	116.835	314.244	276.192	0.075	1.383	1.430	0.108	-0.211	10686.161	10.980
612.964	26.516	116.539	311.997	275.797	0.074	1.349	1.392	0.102	-0.212	10369.944	10.590
613.165	26.465	116.449	310.425	274.902	0.071	1.321	1.350	0.109	-0.212	10275.739	11.161
613.365	26.564	116.226	308.754	274.504	0.071	1.280	1.314	0.105	-0.212	10277.923	11.961
613.565	26.568	115.988	307.012	273.920	0.069	1.250	1.289	0.100	-0.212	9892.833	10.568
613.766	26.595	115.824	305.005	273.882	0.068	1.230	1.275	0.101	-0.212	9894.531	11.714
613.967	26.709	115.574	303.397	272.984	0.067	1.203	1.246	0.099	-0.212	9836.437	11.270
614.167	26.647	115.397	301.886	272.717	0.065	1.186	1.222	0.100	-0.212	9533.173	10.832
614.368	26.701	115.232	299.422	272.196	0.063	1.153	1.196	0.092	-0.212	9535.283	11.215
614.567	26.748	114.905	298.274	272.102	0.064	1.103	1.169	0.095	-0.212	9237.995	10.645
614.768	26.766	114.719	296.580	271.723	0.062	1.088	1.152	0.093	-0.212	9196.549	10.163
614.968	26.806	114.645	295.488	271.077	0.061	1.070	1.119	0.096	-0.212	9198.748	11.029
615.169	26.791	114.358	293.649	270.293	0.060	1.054	1.099	0.087	-0.211	8880.979	10.503
615.369	26.977	114.200	292.502	269.563	0.058	1.023	1.064	0.086	-0.212	8883.752	10.700
615.569	26.984	114.005	290.242	268.855	0.058	1.007	1.051	0.087	-0.212	8782.731	11.177
615.770	26.913	113.801	289.216	269.756	0.057	0.975	1.027	0.083	-0.212	8586.714	10.327
615.970	27.009	113.688	287.443	268.771	0.056	0.963	1.015	0.086	-0.212	8590.442	11.605
616.169	26.983	113.529	285.929	268.524	0.056	0.943	0.991	0.085	-0.212	8317.806	11.106
616.370	27.053	113.329	284.579	267.613	0.055	0.931	0.970	0.080	-0.212	8311.637	11.270
616.569	27.156	113.086	283.020	267.662	0.053	0.902	0.949	0.082	-0.212	8311.046	10.821
616.771	27.177	112.954	281.654	267.504	0.053	0.882	0.936	0.083	-0.211	8050.215	11.018
616.970	27.180	112.812	280.550	266.823	0.051	0.880	0.906	0.078	-0.212	8048.995	11.226
617.171	27.300	112.523	278.986	266.373	0.051	0.846	0.892	0.079	-0.212	7936.444	10.503
617.373	27.215	112.529	277.203	266.220	0.050	0.843	0.886	0.077	-0.212	7801.537	10.815
617.572	27.268	112.230	276.480	265.765	0.050	0.824	0.873	0.077	-0.212	7799.354	10.234
617.773	27.349	111.982	274.707	265.546	0.049	0.792	0.853	0.074	-0.212	7567.882	10.201
617.975	27.448	111.921	273.642	265.279	0.049	0.773	0.835	0.075	-0.212	7570.825	11.117
618.175	27.394	111.800	272.891	264.925	0.049	0.762	0.831	0.071	-0.212	7567.720	10.832
618.374	27.453	111.482	271.729	264.562	0.047	0.751	0.810	0.074	-0.212	7348.036	10.261
618.575	27.478	111.326	269.927	263.970	0.046	0.739	0.795	0.076	-0.212	7347.349	10.344
618.776	27.548	111.214	269.210	263.067	0.046	0.725	0.775	0.072	-0.210	7214.472	11.029
618.977	27.485	111.093	267.871	262.836	0.045	0.721	0.769	0.073	-0.180	7138.759	11.007
619.177	27.543	110.818	266.237	262.744	0.045	0.694	0.768	0.069	-0.180	7137.441	9.817
619.377	27.558	110.776	265.304	262.178	0.044	0.696	0.752	0.068	-0.075	6938.691	10.755
619.579	27.583	110.622	264.295	261.948	0.044	0.687	0.738	0.072	-0.066	6939.071	10.590
619.778	27.643	110.460	262.519	261.859	0.043	0.665	0.735	0.069	-0.066	6935.982	11.024
619.978	27.715	110.301	261.988	260.362	0.042	0.658	0.714	0.069	-0.028	6749.950	11.073
620.180	27.800	110.014	261.159	260.951	0.041	0.641	0.698	0.070	-0.029	6749.950	9.938
620.380	27.787	109.946	259.538	260.687	0.041	0.614	0.692	0.066	-0.028	6622.789	10.481
620.580	27.849	109.702	258.103	260.257	0.041	0.609	0.679	0.066	-0.028	6565.560	9.718
620.781	27.887	109.587	257.411	259.722	0.041	0.605	0.666	0.067	-0.029	6567.258	10.387
620.981	27.880	109.405	256.635	259.380	0.040	0.589	0.651	0.066	0.010	6392.643	9.949
621.181	27.860	109.373	255.864	258.995	0.040	0.592	0.657	0.067	0.010	6393.621	10.525
621.380	27.901	109.252	254.265	258.239	0.039	0.586	0.642	0.065	0.010	6384.129	10.541
621.580	28.042	109.019	253.168	258.509	0.039	0.579	0.629	0.064	0.010	6228.749	10.256
621.780	28.067	108.806	251.930	257.628	0.038	0.551	0.617	0.064	0.010	6227.739	10.004
621.981	28.057	108.672	251.713	258.054	0.039	0.545	0.614	0.062	0.011	6125.716	9.834
622.180	28.041	108.640	250.771	257.230	0.038	0.544	0.613	0.062	0.010	6070.491	10.662
622.380	28.098	108.387	249.256	257.128	0.038	0.534	0.601	0.063	0.010	6067.993	9.943
622.580	28.134	108.371	248.236	256.437	0.039	0.533	0.601	0.059	0.010	5915.613	10.749
622.780	28.222	108.151	247.247	256.758	0.038	0.514	0.574	0.061	0.010	5916.284	10.420
622.981	28.157	108.092	246.586	256.278	0.037	0.519	0.568	0.062	0.010	5908.522	10.618
623.181	28.184	107.913	245.535	256.244	0.037	0.502	0.578	0.059	0.010	5769.435	10.113
623.382	28.292	107.671	245.092	255.758	0.037	0.487	0.545	0.057	0.010	5770.769	9.817
623.581	28.400	107.580	243.734	254.950	0.036	0.481	0.548	0.059	0.010	5690.245	9.877
623.782	28.423	107.430	242.743	255.429	0.035	0.478	0.545	0.059	0.010	5631.528	9.669
623.982	28.384	107.371	242.090	255.313	0.036	0.471	0.552	0.059	0.010	5627.672	9.883
624.181	28.476	107.167	241.103	254.508	0.035	0.463	0.533	0.057	0.010	5493.080	9.324
624.381	28.458	107.028	240.179	253.778	0.034	0.464	0.528	0.058	0.010	5491.034	9.746
624.581	28.571	106.978	239.565	253.575	0.034	0.458	0.532	0.058	0.010	5493.072	10.376
624.781	28.595	106.868	238.615	253.518	0.034	0.448	0.512	0.056	0.010	5369.097	10.656
624.981	28.531	106.749	237.500	252.634	0.034	0.441	0.508	0.054	0.010	5366.315	10.415
625.181	28.630	106.657	237.192	252.813	0.034	0.440	0.483	0.056	0.011	5289.131	10.678
625.381	28.696	106.456	236.004	252.830	0.033	0.414	0.481	0.053	0.010	5242.623	9.740
625.581	28.724	106.267	235.610	252.404	0.033	0.425	0.488	0.055	0.010	5241.434	9.516
625.781	28.696	106.159	234.596	252.192	0.033	0.411	0.487	0.054	0.010	5120.111	9.894
625.981	28.772	106.047	233.130	251.564	0.032	0.414	0.484	0.052	0.010	5123.467	10.212
626.182	28.755	106.013	232.804	251.422	0.032	0.413	0.460	0.051	0.010	5120.750	10.716
626.382	28.841	105.768	231.945	251.086	0.032	0.405	0.474	0.050	0.010	5007.092	9.790
626.583	28.857	105.641	230.911	250.979	0.032	0.392	0.456	0.051	0.011	5006.655	9.609
626.785	28.825	105.653	230.562	250.598	0.032	0.402	0.459	0.051	0.011	4922.258	10.349
626.985	28.833	105.402	229.814	250.436	0.031	0.378	0.450	0.053	0.009	4894.307	9.647
627.185	28.840	105.349	229.615	249.865	0.031	0.380	0.454	0.052	0.010	4894.282	9.592
627.385	28.994	105.160	227.877	249.442	0.031	0.371	0.436	0.049	0.011	4790.214	9.757
627.584	28.952	105.018	227.924	249.457	0.031	0.367	0.436	0.049	0.010	4788.629	9.400
627.784	28.957	105.016	227.472	249.215	0.031	0.375	0.417	0.051	0.010	4775.498	10.064
627.984	29.018	104.837	226.487	249.134	0.030	0.365	0.439	0.048	0.010	4687.212	9.214
628.185	29.104	104.712	225.566	248.710	0.030	0.341	0.422	0.049	-0.211	4690.746	9.713
628.385	29.155	104.593	224.673	248.310	0.030	0.342	0.422	0.051	-0.212	4609.882	10.228
628.585	29.053	104.489	224.768	248.593	0.030	0.339	0.412	0.050	-0.212	4587.890	9.559
628.786	29.217	104.382	222.891	247.675	0.029	0.323	0.416	0.047	-0.212	4590.509	9.971
628.986	29.217	104.217	222.534	247.765	0.029	0.331	0.409	0.050	-0.212	4490.685	9.417
629.186	29.123	104.176	222.021	247.581	0.029	0.336	0.404	0.051	-0.212	4490.144	9.707
629.387	29.139	104.134	221.122	246.369	0.029	0.329	0.399	0.048	-0.212	4467.011	9.921
629.587	29.193	104.015	221.338	246.090	0.029	0.311	0.392	0.048	-0.212	4398.818	9.949
629.787	29.317	103.789	220.144	246.229	0.029	0.299	0.392	0.048	-0.212	4400.467	9.165
629.988	29.321	103.660	219.207	246.549	0.028	0.304	0.385	0.047	-0.212	4320.760	9.296
630.188	29.292	103.658	218.542	245.771	0.028	0.299	0.386	0.045	-0.212	4310.023	9.642
630.387	29.421	103.560	218.076	245.430	0.028	0.302	0.370	0.047	-0.212	4314.502	10.130
630.587	29.334	103.394	217.508	245.650	0.028	0.306	0.379	0.048	-0.212	4220.572	9.148
630.788	29.359	103.253	217.073	245.261	0.028	0.288	0.379	0.046	-0.212	4220.799	9.071
630.988	29.406	103.189	216.548	245.758	0.028	0.284	0.369	0.046	-0.212	4207.118	9.132
631.188	29.515	103.006	216.031	245.072	0.027	0.286	0.359	0.047	-0.212	4136.515	9.049
631.389	29.547	102.931	215.613	244.663	0.028	0.285	0.364	0.046	-0.212	4137.235	9.335
631.588	29.524	102.897	214.845	244.584	0.027	0.284	0.359	0.046	-0.212	4068.848	9.340
631.789	29.535	102.724	213.814	244.289	0.027	0.277	0.362	0.043	-0.212	4048.731	8.907
631.988	29.605	102.792	213.987	243.355	0.027	0.278	0.359	0.045	-0.212	4052.717	10.004
632.188	29.608	102.602	213.537	243.943	0.027	0.276	0.362	0.044	-0.212	3970.738	9.110
632.388	29.613	102.559	212.861	243.395	0.027	0.273	0.337	0.043	-0.212	3969.970	9.313
632.588	29.683	102.482	211.909	243.435	0.026	0.271	0.330	0.044	-0.212	3969.913	10.015
632.790	29.774	102.269	211.186	242.973	0.026	0.260	0.339	0.043	-0.212	3893.198	9.055
632.989	29.817	102.296	211.034	243.115	0.026	0.264	0.321	0.044	-0.213	3896.448	10.146
633.190	29.771	102.193	209.765	242.894	0.026	0.266	0.318	0.043	-0.212	3844.539	9.834
633.389	29.838	102.085	209.637	241.926	0.026	0.260	0.332	0.043	-0.213	3819.280	10.398
633.589	29.805	101.943	209.115	241.812	0.026	0.248	0.317	0.043	-0.213	3815.633	9.790
633.789	29.923	101.809	209.185	241.584	0.026	0.245	0.322	0.044	-0.212	3743.478	8.973
633.990	29.946	101.850	208.179	241.686	0.026	0.249	0.314	0.043	-0.212	3746.615	10.042
634.191	29.944	101.685	207.809	241.868	0.025	0.238	0.318	0.042	-0.212	3742.516	9.351
634.392	30.046	101.589	207.465	241.244	0.025	0.238	0.301	0.041	-0.212	3673.401	9.696
634.591	30.011	101.413	206.406	240.795	0.025	0.240	0.325	0.042	-0.212	3668.655	9.044
634.792	30.008	101.337	206.120	241.236	0.025	0.234	0.318	0.042	-0.212	3637.647	9.088
634.991	30.081	101.382	206.146	239.791	0.025	0.229	0.302	0.039	-0.212	3602.555	9.954
635.192	30.047	101.200	205.194	240.650	0.025	0.233	0.305	0.040	-0.212	3598.205	9.291
635.392	30.104	101.194	204.768	240.371	0.025	0.227	0.305	0.039	-0.212	3534.783	9.905
635.592	30.090	101.061	204.949	240.041	0.025	0.223	0.304	0.042	-0.212	3531.209	9.614
635.792	30.108	100.888	204.391	240.035	0.024	0.214	0.311	0.039	-0.212	3529.317	9.088
635.992	30.151	100.945	203.614	240.019	0.025	0.226	0.292	0.040	-0.212	3466.363	9.642
636.192	30.243	100.643	202.997	239.613	0.024	0.216	0.290	0.040	-0.212	3465.021	8.786
636.392	30.120	100.651	202.766	239.137	0.024	0.203	0.296	0.041	-0.212	3448.809	9.477
636.592	30.299	100.460	201.752	238.242	0.024	0.206	0.281	0.041	-0.212	3397.660	9.165
636.792	30.298	100.393	201.129	238.292	0.024	0.207	0.289	0.041	-0.212	3396.197	9.060
