Time (sec)	T1 (C)	T2 (C)	T3 (C)	T4 (C)	P1 (kPa)	P2 (kPa)	P3 (kPa)	P4 (kPa)	Fuel Flow  (L/hr)	RPM	Thrust (N)
257.596	41.127	40.965	58.058	39.926	0.018	0.623	0.464	0.044	0.010	6.519	15.455
257.797	41.085	40.914	58.365	39.856	0.018	0.613	0.451	0.046	0.010	4.441	15.170
257.997	41.084	40.923	58.589	39.977	0.018	0.614	0.455	0.045	0.010	3.131	14.709
258.197	41.105	40.798	57.991	39.703	0.018	0.620	0.452	0.046	0.010	4.619	14.638
258.397	41.047	40.801	58.487	39.868	0.018	0.615	0.459	0.046	0.010	3.350	14.737
258.598	41.095	40.809	58.379	39.806	0.018	0.626	0.466	0.046	0.010	4.409	14.786
258.797	41.009	40.868	58.995	39.937	0.018	0.603	0.456	0.047	0.009	3.075	15.088
258.999	41.109	40.874	58.222	39.730	0.018	0.615	0.454	0.046	0.010	6.932	15.274
259.199	41.149	40.856	58.750	39.732	0.018	0.625	0.452	0.048	0.010	7.223	15.729
259.399	41.026	40.881	58.290	39.905	0.018	0.626	0.452	0.046	0.010	4.207	14.945
259.601	41.118	40.931	58.018	40.198	0.018	0.621	0.455	0.045	0.010	6.010	15.482
259.800	40.994	40.823	58.794	40.425	0.018	0.618	0.467	0.046	0.010	3.714	14.813
260.001	41.148	40.828	58.062	40.491	0.018	0.613	0.454	0.046	0.010	6.075	14.934
260.201	41.047	40.874	58.613	40.176	0.018	0.622	0.448	0.045	0.010	8.258	15.790
260.402	41.038	40.836	58.777	40.406	0.018	0.620	0.456	0.047	0.010	4.894	15.049
260.601	41.005	40.885	58.439	39.583	0.018	0.618	0.457	0.046	0.010	4.474	15.680
260.802	41.143	40.896	58.240	39.861	0.018	0.615	0.458	0.046	0.010	8.783	15.680
261.002	41.126	40.830	58.629	40.226	0.018	0.626	0.445	0.046	0.010	6.002	15.186
261.203	41.050	40.820	58.496	40.716	0.018	0.602	0.452	0.046	0.010	4.029	15.104
261.403	41.073	40.896	58.672	39.715	0.018	0.615	0.458	0.046	0.010	7.223	15.740
261.603	40.989	40.882	58.705	40.525	0.018	0.626	0.455	0.046	0.010	5.209	15.285
261.803	40.993	40.893	58.626	40.188	0.018	0.620	0.464	0.045	0.010	4.271	15.318
262.003	41.097	40.858	58.317	40.194	0.018	0.615	0.449	0.046	0.010	7.376	14.852
262.203	41.042	40.868	58.845	40.149	0.018	0.623	0.460	0.045	0.010	3.544	14.534
262.403	41.028	40.799	58.252	39.997	0.018	0.616	0.456	0.046	0.010	4.296	14.731
262.603	41.093	40.882	58.666	40.231	0.018	0.623	0.448	0.046	0.010	6.859	15.691
262.804	40.982	40.842	58.346	40.400	0.018	0.615	0.451	0.047	0.010	4.441	14.994
263.004	41.057	40.773	58.018	40.103	0.018	0.618	0.456	0.046	0.010	3.423	14.956
263.205	41.155	40.856	58.451	39.744	0.018	0.617	0.456	0.045	0.010	7.037	15.548
263.404	41.042	40.800	58.923	40.004	0.018	0.614	0.460	0.047	0.010	5.371	15.005
263.605	41.082	40.891	58.533	39.619	0.018	0.602	0.447	0.047	0.010	8.136	15.960
263.806	41.089	40.892	58.215	40.130	0.018	0.624	0.455	0.047	0.010	7.684	15.642
264.005	41.004	40.823	58.405	39.753	0.018	0.622	0.458	0.047	0.010	4.991	15.033
264.206	41.011	40.892	58.491	39.886	0.018	0.625	0.451	0.047	0.010	4.749	15.049
264.407	41.130	40.814	58.031	40.342	0.018	0.611	0.443	0.046	0.010	7.142	15.433
264.607	41.022	40.869	57.994	39.539	0.018	0.620	0.462	0.046	0.010	6.058	15.658
264.807	41.125	40.813	58.345	39.694	0.018	0.603	0.462	0.046	0.010	7.021	14.874
265.007	41.055	40.946	58.934	39.636	0.018	0.615	0.460	0.046	0.010	5.541	15.510
265.207	41.063	40.807	58.270	40.024	0.018	0.609	0.458	0.047	0.010	4.118	14.633
265.407	41.092	40.744	58.254	40.141	0.018	0.619	0.449	0.045	0.010	5.347	14.874
265.607	41.129	40.773	58.424	40.144	0.018	0.619	0.446	0.047	0.010	6.164	14.983
265.809	41.076	40.873	58.379	39.927	0.018	0.619	0.463	0.046	0.010	6.770	15.707
266.010	41.078	40.889	58.663	39.886	0.018	0.631	0.458	0.047	0.010	6.042	15.888
266.209	41.044	40.870	58.553	39.487	0.018	0.621	0.456	0.048	0.010	7.012	15.795
266.409	41.135	40.849	58.318	40.411	0.018	0.615	0.459	0.046	0.010	6.818	15.762
266.610	41.029	40.856	58.652	39.917	0.018	0.624	0.461	0.047	0.010	4.142	15.060
266.809	41.152	40.785	58.343	39.841	0.018	0.611	0.449	0.047	0.010	6.665	15.148
267.009	41.122	40.776	58.548	40.078	0.018	0.609	0.454	0.046	0.010	4.506	14.885
267.209	41.150	40.782	58.335	40.202	0.018	0.628	0.443	0.047	0.010	5.816	14.797
267.409	41.134	40.825	57.993	40.092	0.018	0.622	0.454	0.047	0.010	8.597	15.691
267.609	41.072	40.755	58.312	39.885	0.018	0.629	0.459	0.046	0.009	4.207	14.940
267.809	41.075	40.734	58.480	40.350	0.018	0.630	0.464	0.046	0.010	4.077	15.071
268.009	41.059	40.857	58.712	40.163	0.018	0.620	0.451	0.046	0.009	7.166	15.598
268.211	41.071	40.825	58.516	39.722	0.018	0.626	0.454	0.047	0.009	5.549	15.225
268.412	41.132	40.695	58.836	39.841	0.018	0.620	0.454	0.046	0.011	4.635	14.945
268.613	41.157	40.841	58.406	39.673	0.018	0.626	0.449	0.046	0.007	7.182	15.647
268.813	41.040	40.854	58.016	40.367	0.018	0.626	0.457	0.045	0.012	5.177	15.208
269.013	41.076	40.833	58.187	39.787	0.018	0.619	0.452	0.046	0.011	6.762	15.373
269.213	41.115	40.702	57.867	40.129	0.018	0.620	0.469	0.046	0.010	6.204	14.512
269.413	41.079	40.753	58.511	40.054	0.018	0.615	0.456	0.047	0.009	3.819	14.282
269.615	41.055	40.758	58.352	40.315	0.018	0.627	0.460	0.045	0.010	3.026	14.824
269.814	41.185	40.761	57.859	39.837	0.018	0.624	0.461	0.048	0.010	7.344	15.263
270.014	41.136	40.696	58.229	39.745	0.018	0.619	0.458	0.047	0.009	5.565	14.676
270.216	41.106	40.870	57.963	39.717	0.018	0.633	0.453	0.047	0.010	7.546	15.916
270.415	41.145	40.741	58.260	40.125	0.018	0.618	0.466	0.046	0.010	5.670	15.038
270.617	41.033	40.824	58.801	40.220	0.018	0.616	0.465	0.046	0.010	4.174	15.296
270.816	41.013	40.758	57.915	39.754	0.018	0.618	0.468	0.048	0.010	3.204	14.523
271.017	41.078	40.736	58.495	39.894	0.018	0.618	0.446	0.045	0.010	7.756	14.951
271.217	41.068	40.675	58.668	39.536	0.018	0.612	0.443	0.046	0.010	7.764	15.027
271.418	41.065	40.666	58.678	40.393	0.018	0.615	0.437	0.047	0.010	6.673	14.753
271.618	40.991	40.839	58.300	39.452	0.018	0.606	0.452	0.046	0.010	4.369	15.521
271.818	40.997	40.796	58.414	39.873	0.018	0.614	0.444	0.048	0.010	4.773	15.269
272.018	41.101	40.781	58.366	39.962	0.018	0.605	0.444	0.047	0.010	7.247	15.362
272.218	41.033	40.810	58.095	39.873	0.018	0.611	0.456	0.047	0.010	7.126	15.181
272.420	41.074	40.673	58.488	39.795	0.018	0.621	0.450	0.049	0.010	5.355	14.391
272.620	40.986	40.826	58.485	39.509	0.018	0.620	0.460	0.047	0.009	5.209	15.066
272.822	41.114	40.692	57.997	39.970	0.018	0.621	0.451	0.046	0.010	7.158	14.962
273.022	41.035	40.741	58.400	40.103	0.018	0.615	0.452	0.046	0.010	3.325	14.890
273.222	41.095	40.682	57.987	40.183	0.018	0.611	0.470	0.048	0.010	4.053	14.046
273.423	41.096	40.644	58.174	40.068	0.018	0.611	0.454	0.048	0.010	5.484	14.770
273.622	41.016	40.811	58.709	39.747	0.018	0.621	0.454	0.046	0.010	4.692	15.466
273.822	41.057	40.778	58.355	39.928	0.018	0.622	0.454	0.048	0.010	7.239	15.455
274.022	40.929	40.674	58.305	40.089	0.004	0.652	0.526	0.048	0.010	7.611	15.077
274.222	41.776	40.774	58.378	41.133	-0.001	0.672	0.533	0.049	0.010	2.865	14.973
274.422	41.909	40.925	58.568	40.625	0.007	0.669	0.547	0.050	0.010	5.363	14.759
274.622	41.682	40.833	58.086	40.578	0.009	0.705	0.567	0.056	0.009	289.165	13.585
274.823	40.801	40.678	59.115	39.979	0.018	0.748	0.594	0.056	0.010	309.597	14.353
275.022	40.999	39.037	58.834	40.373	0.035	0.816	0.650	0.065	0.010	308.926	14.188
275.222	40.862	41.408	58.334	40.100	0.045	0.886	0.740	0.073	0.010	940.082	13.936
275.424	41.896	40.309	57.670	40.594	0.057	1.000	0.809	0.080	0.010	933.096	14.879
275.624	40.727	40.333	57.833	40.386	0.062	1.078	0.881	0.089	0.010	1066.087	14.380
275.825	40.520	40.668	58.080	40.174	0.062	1.157	0.970	0.104	0.010	1818.711	14.687
276.025	41.102	41.973	58.684	40.509	0.066	1.260	1.082	0.111	0.010	1815.695	14.139
276.225	40.921	40.786	58.283	40.439	0.067	1.367	1.178	0.118	0.010	2689.457	15.033
276.426	40.661	40.516	59.266	41.571	0.074	1.471	1.300	0.127	0.010	2857.353	14.101
276.626	40.819	39.327	58.514	41.589	0.076	1.617	1.420	0.144	0.010	2856.658	15.093
276.826	40.742	40.242	59.035	41.206	0.080	1.772	1.544	0.155	0.010	4001.487	15.099
277.027	40.040	40.986	57.777	40.898	0.086	1.906	1.601	0.184	0.010	3999.223	14.084
277.226	39.734	39.845	58.770	40.517	0.093	2.052	1.814	0.201	0.010	4293.471	15.340
277.427	39.757	40.318	59.451	41.087	0.105	2.188	1.964	0.205	0.010	5199.576	14.336
277.627	39.839	40.592	58.726	40.934	0.115	2.346	2.101	0.233	0.010	5194.134	14.238
277.828	39.597	40.660	58.698	41.792	0.124	2.477	2.260	0.237	0.010	6382.229	13.481
278.029	39.463	41.064	57.927	40.836	0.136	2.624	2.388	0.244	0.010	6396.249	15.345
278.229	39.930	40.329	59.475	42.282	0.141	2.775	2.539	0.269	0.010	6392.643	15.406
278.430	38.477	40.651	58.934	41.585	0.142	2.905	2.680	0.289	0.009	7558.810	15.066
278.630	38.255	41.372	58.592	41.540	0.161	3.047	2.785	0.296	0.010	7562.804	15.000
278.830	37.769	40.711	58.904	40.766	0.162	3.205	2.924	0.318	0.010	8198.650	15.713
279.032	37.837	40.411	58.951	41.843	0.171	3.303	3.044	0.332	0.010	8665.977	15.790
279.231	37.425	41.371	58.036	41.573	0.169	3.392	3.153	0.321	0.010	8669.138	15.625
279.431	37.374	41.282	58.563	42.663	0.175	3.507	3.268	0.336	0.010	9693.250	15.345
279.631	36.863	40.318	57.989	41.623	0.184	3.605	3.365	0.359	0.010	9695.668	15.762
279.831	36.854	40.644	57.385	42.420	0.177	3.702	3.450	0.347	0.010	9704.457	15.088
280.032	38.405	40.663	57.486	42.683	0.187	3.813	3.564	0.364	19.351	10629.530	14.622
280.231	35.979	41.452	57.478	42.140	0.187	3.901	3.655	0.405	38.031	10630.742	12.680
280.432	36.612	41.416	57.848	43.030	0.199	4.050	3.737	0.403	38.134	11255.171	13.859
280.631	36.092	40.914	57.314	41.982	0.181	4.140	3.814	0.397	38.113	11481.258	13.108
280.831	38.799	43.260	59.504	45.073	0.192	4.241	3.893	0.415	37.989	11477.766	13.821
281.032	35.207	40.712	56.693	42.079	0.197	4.321	3.957	0.392	38.157	12225.143	12.176
281.233	35.487	41.507	56.942	42.383	0.214	4.373	4.036	0.408	38.154	12227.496	13.124
281.433	35.037	40.831	56.883	42.696	0.199	4.430	4.071	0.412	38.146	12378.129	13.234
281.634	34.789	41.464	56.667	42.514	0.208	4.467	4.132	0.426	38.155	12885.253	12.746
281.834	34.747	41.306	56.149	42.660	0.198	4.497	4.178	0.454	38.154	12884.598	12.757
282.034	34.319	40.828	55.955	42.915	0.207	5.901	5.696	0.592	38.127	13421.760	14.331
282.234	34.447	40.636	58.680	43.522	0.313	6.495	6.110	0.587	38.142	13445.483	14.764
282.435	34.020	40.631	68.123	44.324	0.332	6.950	6.554	0.632	38.117	13447.633	14.846
282.635	35.294	43.238	82.885	47.327	0.365	7.554	7.135	0.710	37.926	14092.171	14.397
282.835	34.079	41.580	99.992	48.502	0.408	8.290	7.734	0.784	38.140	14092.082	14.331
283.036	36.445	43.292	120.476	51.275	0.430	9.018	8.407	0.867	37.754	14498.412	16.804
283.236	39.409	42.485	144.472	53.195	0.465	9.461	8.907	0.912	37.855	15011.349	16.272
283.436	33.805	41.710	165.471	54.682	0.508	10.147	9.763	1.065	37.950	15009.312	14.369
283.636	34.745	40.561	190.952	58.745	0.532	10.715	10.407	1.150	32.639	16152.645	15.192
283.837	34.099	39.151	217.808	61.198	0.587	11.424	11.143	1.190	28.964	16167.538	16.601
284.039	33.963	40.434	242.217	63.860	0.602	12.241	11.990	1.058	28.868	16165.331	16.387
284.239	33.767	42.019	270.243	67.466	0.662	13.225	12.968	1.260	28.815	17519.624	18.647
284.440	34.111	40.268	297.133	69.627	0.694	14.314	14.102	1.215	28.823	17520.618	16.481
284.641	32.461	41.162	325.413	72.160	0.777	15.594	15.336	1.750	28.767	18673.873	17.309
284.840	34.429	41.395	357.268	76.778	0.843	17.159	16.863	2.219	28.306	19088.458	17.698
285.040	31.263	42.871	378.242	79.544	0.866	18.634	18.426	2.435	28.503	19083.461	17.572
285.241	32.653	42.420	394.489	83.677	0.975	20.263	20.033	2.555	1.394	20904.159	18.202
285.441	30.822	42.135	413.505	88.017	1.012	21.971	21.740	2.736	-0.208	20910.183	18.564
285.642	32.165	41.529	422.370	93.613	1.111	23.737	23.501	2.954	-0.211	21351.102	20.215
285.841	31.148	42.682	434.862	97.153	1.137	25.311	25.097	3.011	-0.211	23026.698	18.696
286.041	30.606	40.031	444.700	101.331	1.127	27.186	27.007	3.348	-0.211	23028.865	20.687
286.242	30.309	40.837	449.022	104.865	1.280	29.759	29.481	3.552	-0.211	25266.129	21.827
286.443	31.212	41.770	455.072	110.562	1.410	32.016	31.800	3.831	38.134	25365.362	24.158
286.642	30.530	38.579	460.172	113.911	1.459	34.254	34.091	4.170	38.150	25373.205	25.748
286.842	30.293	41.568	464.061	117.731	1.587	36.980	36.756	4.500	38.164	27911.097	24.904
287.042	30.262	43.335	465.232	121.956	1.506	39.727	39.517	4.808	38.125	27908.033	24.816
287.243	29.762	41.148	460.491	124.008	1.428	42.396	42.125	5.229	38.143	29324.520	27.437
287.444	29.862	39.497	463.031	129.664	1.442	45.493	45.176	5.556	38.153	30643.673	28.210
287.645	29.706	42.792	465.170	131.248	1.165	48.230	47.879	5.936	38.143	30643.939	28.534
287.846	30.386	43.940	463.060	133.993	1.172	51.005	50.570	6.327	38.141	33491.677	29.762
288.046	29.435	42.149	465.813	137.102	1.075	53.459	52.965	6.628	38.149	33495.938	30.152
288.246	32.793	44.286	455.347	138.592	1.149	55.725	55.428	6.982	37.731	33669.089	30.629
288.446	31.418	44.319	466.291	143.517	1.204	57.828	57.332	7.226	37.604	36347.848	36.167
288.646	33.299	44.345	452.596	143.634	1.268	59.579	59.125	7.302	30.287	36364.334	30.245
288.846	28.859	43.579	465.309	148.966	1.316	61.437	60.926	7.481	22.007	38484.932	32.460
289.047	28.846	44.277	453.437	148.381	1.355	62.856	62.318	7.725	21.835	39083.059	33.870
289.249	37.929	48.748	452.608	150.401	1.385	63.959	63.765	7.837	15.447	38921.639	30.908
289.449	33.459	47.313	448.892	153.131	1.438	65.467	64.853	8.088	15.683	41586.563	29.971
289.650	33.891	45.552	449.415	155.199	1.485	66.449	65.896	8.277	15.665	41609.033	33.371
289.850	36.600	49.725	446.891	159.144	1.527	67.278	66.670	8.380	12.420	42015.727	30.618
290.050	34.935	46.107	448.091	160.170	1.537	67.737	66.920	8.412	12.384	43617.372	35.367
290.250	27.934	47.279	447.315	161.995	1.552	68.030	67.236	8.530	12.643	43804.608	35.164
290.450	27.080	46.602	446.591	163.164	1.734	67.199	66.466	8.450	12.697	45569.379	33.892
290.651	26.876	47.269	445.042	164.769	1.866	64.402	63.755	7.853	12.696	45604.074	34.791
290.852	26.800	47.767	444.424	166.307	1.794	62.565	61.922	7.601	12.839	45601.656	33.124
291.053	26.680	48.221	445.584	167.103	1.749	60.908	60.187	7.366	12.848	46864.267	32.822
291.253	26.566	48.769	447.797	168.840	1.704	59.306	58.636	7.286	12.848	46866.620	32.691
291.455	26.352	49.316	450.116	169.946	1.678	58.034	57.369	7.250	12.848	47291.935	31.890
291.654	26.178	49.983	453.131	170.575	1.657	57.099	56.451	7.001	12.848	47458.222	32.773
291.854	26.127	50.466	455.690	171.556	1.609	56.037	55.337	6.926	12.766	47461.100	32.713
292.055	26.062	50.876	458.726	172.041	1.602	54.943	54.264	6.720	12.356	47586.968	31.725
292.256	25.785	51.368	461.473	173.045	1.556	54.002	53.350	6.682	12.355	47584.146	31.479
292.456	25.640	51.753	463.961	174.988	1.527	53.238	52.634	6.593	12.355	47536.991	30.854
292.656	25.567	52.140	466.959	174.918	1.502	52.393	51.775	6.352	12.355	47421.344	30.415
292.856	25.498	52.618	469.623	176.050	1.481	51.730	51.095	6.422	12.356	47425.791	31.150
293.056	25.325	52.990	471.750	176.887	1.464	51.027	50.487	6.231	12.393	47110.156	30.684
293.257	25.350	53.307	474.620	177.384	1.443	50.460	49.894	6.216	12.394	47089.918	29.834
293.457	25.253	53.567	476.667	178.074	1.421	50.136	49.527	6.099	12.386	47089.320	30.212
293.657	25.083	54.079	479.458	179.330	1.404	49.983	49.419	6.203	12.128	46677.023	30.760
293.857	25.038	54.305	482.495	179.762	1.394	49.450	48.859	6.105	12.129	46675.834	30.256
294.057	25.009	54.667	485.274	180.600	1.397	49.074	48.436	6.176	12.263	46474.367	30.393
294.257	24.925	55.041	488.028	181.101	1.389	48.844	48.294	6.064	12.356	46258.508	30.387
294.458	24.841	55.379	490.774	181.269	1.378	48.249	47.646	6.043	12.355	46258.015	30.294
294.659	24.693	55.537	493.460	182.479	1.380	47.702	47.121	6.051	12.280	45841.125	29.367
294.860	24.704	55.836	495.883	183.218	1.358	47.279	46.711	5.983	12.281	45844.230	29.400
295.060	24.518	56.109	499.081	183.372	1.354	46.755	46.212	5.797	12.287	45795.337	29.247
295.261	24.542	56.479	501.004	184.081	1.337	46.335	45.787	5.786	12.886	45415.188	29.658
295.461	24.502	56.670	503.289	184.979	1.342	46.092	45.492	5.720	12.886	45413.781	29.175
295.662	24.328	56.977	505.288	184.756	1.324	45.717	45.166	5.700	12.725	45074.391	29.137
295.862	24.318	57.283	507.233	185.540	1.307	45.327	44.781	5.686	12.545	44975.788	29.664
296.063	24.262	57.372	508.683	185.820	1.303	44.938	44.414	5.643	12.545	44972.255	28.528
296.263	24.116	57.642	511.183	185.701	1.286	44.565	44.037	5.605	12.807	44547.611	28.627
296.464	24.146	57.891	513.730	186.776	1.275	44.386	43.875	5.560	12.810	44549.511	29.115
296.663	24.115	57.977	515.695	187.442	1.262	44.077	43.582	5.500	12.810	44420.717	28.084
296.863	24.030	58.304	518.088	187.927	1.261	43.934	43.430	5.398	12.621	44142.373	28.205
297.063	24.086	58.532	521.119	187.947	1.254	43.538	43.023	5.394	12.621	44147.507	29.110
297.264	23.949	58.676	524.048	188.048	1.227	43.374	42.864	5.402	12.598	43769.938	28.441
297.465	23.929	58.934	525.880	188.060	1.238	43.116	42.622	5.360	12.545	43765.919	28.364
297.664	24.016	59.005	529.283	188.222	1.224	42.912	42.399	5.363	12.545	43768.951	28.594
297.864	23.879	59.174	531.650	188.712	1.220	42.761	42.260	5.231	12.645	43411.450	28.287
298.065	23.847	59.474	534.539	188.785	1.205	42.618	42.098	5.315	12.658	43410.221	28.819
298.265	23.904	59.566	536.734	188.663	1.197	42.475	41.990	5.286	12.658	43215.529	28.764
298.465	23.766	59.779	539.310	189.764	1.196	42.437	41.975	5.279	12.696	43094.651	28.638
298.665	23.830	59.970	541.640	189.136	1.212	42.229	41.698	5.239	12.697	43098.880	28.956
298.865	23.723	60.079	544.496	189.674	1.197	42.005	41.564	5.180	12.673	42814.981	28.622
299.065	23.748	60.282	546.139	190.008	1.177	42.032	41.568	5.238	12.507	42818.684	29.252
299.265	23.761	60.318	547.905	190.781	1.192	41.789	41.305	5.127	12.507	42783.019	28.463
299.465	23.757	60.485	550.462	191.203	1.197	41.868	41.342	5.204	12.560	42574.760	28.287
299.665	23.624	60.676	553.048	191.381	1.195	41.701	41.266	5.168	12.582	42571.784	28.594
299.867	23.596	60.779	554.606	191.698	1.188	41.671	41.246	5.153	12.582	42379.147	28.227
300.067	23.680	60.887	556.354	192.206	1.187	41.492	41.033	5.094	12.469	42364.164	28.391
300.267	23.538	61.007	558.085	192.417	1.172	41.566	41.074	5.196	12.469	42360.315	27.969
300.467	23.532	61.267	561.092	192.854	1.169	41.542	41.042	5.122	12.485	42182.418	29.000
300.668	23.504	61.263	563.179	193.236	1.176	41.390	40.915	5.070	12.734	42178.804	27.837
300.869	23.460	61.461	565.856	193.131	1.167	41.312	40.839	5.080	12.734	42105.201	27.914
301.070	23.560	61.615	567.770	193.702	1.168	41.212	40.726	5.006	12.941	42027.685	28.934
301.270	23.493	61.663	570.165	193.914	1.164	41.306	40.810	5.095	13.113	42022.721	27.975
301.470	23.415	61.909	572.463	193.746	1.146	41.261	40.729	5.076	13.112	41890.870	28.687
301.670	23.511	61.986	574.273	194.140	1.176	41.162	40.693	5.075	12.963	41891.024	28.665
301.871	23.469	62.058	575.888	195.140	1.162	41.154	40.685	5.066	12.962	41884.361	27.870
302.071	23.407	62.264	577.893	195.454	1.166	41.110	40.637	5.038	12.961	41782.241	28.940
302.272	23.452	62.408	579.608	196.125	1.159	41.194	40.731	4.966	12.697	41783.996	28.704
302.471	23.380	62.540	581.456	196.620	1.152	41.106	40.601	5.055	12.696	41710.692	28.978
302.671	23.379	62.605	583.525	196.370	1.152	41.187	40.775	5.053	12.723	41691.966	28.945
302.872	23.372	62.634	585.040	196.927	1.162	41.184	40.730	4.992	12.772	41689.977	28.095
303.072	23.280	62.804	587.091	197.504	1.142	41.133	40.644	5.023	12.771	41620.773	28.013
303.273	23.342	62.899	588.262	197.020	1.146	41.118	40.639	5.046	12.361	41622.544	28.742
303.473	23.407	63.023	590.501	197.618	1.152	41.099	40.582	5.035	12.355	41607.602	28.517
303.673	23.367	63.031	591.379	197.299	1.156	41.071	40.620	4.975	12.356	41570.926	28.243
303.873	23.306	63.209	593.026	198.492	1.154	41.111	40.615	5.017	12.317	41572.583	28.561
304.075	23.339	63.279	594.108	198.246	1.149	41.179	40.754	5.027	12.317	41534.727	28.238
304.274	23.311	63.378	595.821	198.837	1.157	41.102	40.588	5.041	12.318	41532.600	27.837
304.474	23.279	63.672	596.511	199.495	1.140	41.139	40.626	5.048	12.317	41536.004	29.055
304.675	23.249	63.625	597.816	199.980	1.141	41.144	40.670	5.060	12.317	41514.586	28.101
304.875	23.203	63.731	599.183	200.422	1.134	41.200	40.746	5.068	12.444	41514.262	28.578
305.075	23.298	63.913	599.869	201.169	1.146	41.256	40.778	5.058	12.469	41506.533	28.852
305.275	23.218	63.971	601.486	201.778	1.156	41.238	40.765	5.072	12.469	41494.938	28.622
305.475	23.278	64.165	602.353	202.090	1.161	41.295	40.799	5.105	12.317	41499.393	29.159
305.675	23.318	64.212	603.642	203.312	1.150	41.305	40.783	5.030	12.318	41503.719	29.005
305.875	23.320	64.311	604.506	203.953	1.163	41.278	40.812	5.009	12.350	41502.627	28.534
306.075	23.229	64.526	605.365	203.991	1.181	41.310	40.832	5.087	12.545	41500.655	28.792
306.275	23.231	64.499	606.032	204.302	1.164	41.279	40.817	5.088	12.545	41506.775	28.260
306.475	23.217	64.703	606.017	204.806	1.175	41.322	40.822	4.976	12.376	41508.611	29.653
306.675	23.275	64.671	606.758	205.481	1.152	41.300	40.774	4.981	12.280	41508.053	28.644
306.876	23.277	64.865	607.385	205.545	1.159	41.233	40.722	5.108	12.280	41508.942	28.797
307.077	23.163	64.919	608.195	206.131	1.170	41.320	40.837	4.987	12.431	41505.182	28.364
307.277	23.176	65.082	608.432	205.816	1.174	41.468	40.997	5.083	12.431	41508.142	29.494
307.477	23.262	65.138	609.605	206.012	1.166	41.380	40.890	5.032	12.431	41509.072	29.170
307.676	23.194	65.153	610.366	206.643	1.163	41.347	40.856	5.123	12.280	41507.851	28.117
307.877	23.121	65.366	611.553	208.008	1.166	41.366	40.804	5.022	12.280	41513.478	29.466
308.077	23.184	65.405	611.581	208.126	1.169	41.364	40.823	5.046	12.349	41511.521	28.183
308.278	23.149	65.584	611.815	208.416	1.165	41.411	40.901	5.053	12.431	41520.343	29.455
308.478	23.187	65.663	612.991	208.915	1.158	41.352	40.877	5.052	12.431	41522.728	29.395
308.678	23.167	65.651	612.544	209.408	1.150	41.425	40.872	5.026	12.393	41518.475	28.293
308.878	23.139	65.858	613.718	209.355	1.161	41.464	40.926	5.093	12.393	41525.695	29.812
309.078	23.061	65.949	613.392	210.026	1.172	41.383	40.838	5.003	12.393	41522.146	29.263
309.278	23.098	65.991	614.154	210.206	1.163	41.503	40.940	5.097	12.469	41525.776	28.358
309.479	23.144	66.094	614.582	210.479	1.162	41.404	40.841	5.083	12.469	41529.770	28.567
309.678	23.147	66.125	614.680	211.389	1.176	41.456	40.903	5.093	12.449	41530.943	28.490
309.879	23.094	66.210	614.589	211.799	1.171	41.635	41.130	5.057	12.393	41538.923	28.830
310.079	23.131	66.441	615.845	212.168	1.173	41.561	41.025	5.071	12.393	41542.101	29.905
310.280	23.097	66.452	615.908	212.770	1.172	41.483	41.038	5.065	12.493	41539.376	28.671
310.481	23.073	66.668	616.993	213.054	1.179	41.663	41.155	5.114	12.506	41559.000	29.751
310.681	23.074	66.663	616.659	213.140	1.176	41.669	41.137	5.030	12.507	41558.086	30.113
310.881	23.120	66.686	617.259	213.601	1.145	41.702	41.243	5.115	12.204	41576.222	29.110
311.082	23.032	66.742	617.544	213.580	1.155	41.697	41.194	5.151	12.204	41577.572	29.291
311.281	23.100	66.850	618.014	214.401	1.163	41.820	41.305	5.137	12.165	41577.604	28.868
311.481	23.019	66.900	618.090	215.430	1.161	41.641	41.178	5.060	12.015	41602.888	29.033
311.682	23.039	67.089	618.442	215.736	1.150	41.724	41.210	5.121	12.015	41606.567	29.883
311.883	23.073	67.091	618.682	215.476	1.148	41.821	41.309	5.101	11.853	41615.275	29.324
312.084	23.067	67.154	619.122	216.300	1.168	41.872	41.344	5.128	11.787	41626.223	29.055
312.285	23.091	67.317	619.004	217.307	1.164	41.865	41.342	5.125	11.787	41630.144	29.691
312.486	23.024	67.344	619.672	217.455	1.192	41.852	41.349	5.120	11.938	41649.606	28.967
312.685	23.092	67.406	619.518	218.509	1.193	41.801	41.278	5.138	11.938	41651.991	28.962
312.887	23.107	67.531	620.048	218.593	1.160	41.849	41.347	5.121	11.953	41651.813	29.241
313.086	23.120	67.627	620.105	218.644	1.187	41.902	41.418	5.141	12.166	41677.493	29.565
313.286	23.111	67.698	620.385	219.470	1.180	41.976	41.526	5.139	12.166	41678.019	29.823
313.487	23.021	67.918	620.970	219.959	1.158	41.839	41.333	5.063	12.166	41689.411	29.625
313.688	23.003	67.991	621.696	219.777	1.182	41.833	41.308	5.088	12.166	41693.421	29.916
313.888	23.039	68.057	621.438	220.178	1.165	41.849	41.340	5.099	12.166	41695.766	29.823
314.088	23.131	68.052	620.988	220.955	1.152	41.900	41.367	5.082	12.204	41711.339	29.790
314.287	23.035	68.093	620.584	221.149	1.172	41.840	41.351	5.055	12.204	41709.172	29.088
314.489	23.092	68.252	620.777	221.532	1.162	41.871	41.335	5.109	12.204	41715.034	29.576
314.688	23.088	68.261	620.379	221.805	1.149	41.793	41.298	5.135	12.318	41729.475	29.099
314.888	23.045	68.482	619.949	222.467	1.155	41.828	41.301	5.082	12.317	41730.154	29.625
315.088	23.000	68.489	619.970	223.069	1.185	41.929	41.380	5.129	12.262	41738.806	29.910
315.289	23.049	68.497	620.380	223.839	1.192	41.937	41.417	5.081	12.166	41735.911	29.208
315.489	23.095	68.599	620.684	223.757	1.199	41.919	41.427	5.093	12.166	41740.706	29.905
315.688	23.053	68.759	620.484	224.169	1.168	41.946	41.376	5.098	12.459	41752.365	30.075
315.888	23.047	68.818	620.920	225.089	1.163	41.889	41.385	5.043	12.469	41750.861	29.801
316.088	23.095	68.815	621.755	224.981	1.191	41.975	41.450	5.133	12.469	41757.879	29.702
316.288	23.052	68.884	621.753	225.963	1.188	41.939	41.378	5.047	12.091	41761.283	29.373
316.488	23.022	68.971	621.813	225.972	1.175	41.988	41.453	5.086	12.090	41758.114	29.296
316.689	23.091	69.047	621.692	226.326	1.168	41.966	41.439	5.181	12.160	41774.956	29.433
316.888	23.007	69.205	622.114	226.231	1.182	41.984	41.441	5.065	12.431	41771.447	29.461
317.088	23.027	69.263	622.279	227.395	1.175	42.065	41.550	5.183	12.431	41773.387	29.433
317.289	23.091	69.267	621.990	227.187	1.193	41.889	41.356	5.124	12.501	41781.885	28.923
317.489	23.025	69.399	622.217	227.755	1.164	42.064	41.476	5.078	12.507	41785.006	30.025
317.689	22.954	69.417	621.871	227.650	1.172	41.975	41.451	5.152	12.506	41789.890	29.115
317.889	22.950	69.547	621.984	228.281	1.168	41.920	41.386	5.091	12.544	41794.313	30.168
318.089	23.041	69.652	621.740	228.734	1.180	41.870	41.340	5.115	12.545	41797.733	30.042
318.290	23.023	69.540	622.283	229.008	1.174	42.041	41.540	5.230	12.543	41806.853	29.422
318.491	23.052	69.715	622.054	228.774	1.182	41.902	41.394	5.008	12.507	41809.788	29.932
318.691	23.061	69.706	621.997	229.744	1.189	42.026	41.478	5.207	12.507	41811.721	29.642
318.892	22.963	69.907	622.168	229.478	1.190	42.106	41.533	5.159	12.531	41814.462	30.152
319.092	23.028	70.005	622.543	230.317	1.181	42.182	41.631	5.255	12.545	41814.510	29.866
319.293	22.943	70.004	622.235	230.966	1.190	42.271	41.726	5.215	12.545	41824.666	29.647
319.494	22.946	70.031	622.095	232.033	1.178	42.518	41.997	5.237	12.545	41823.429	29.587
319.695	22.970	70.166	622.423	231.444	1.183	42.585	42.007	5.263	12.545	41826.509	30.097
319.896	23.043	70.151	622.432	232.202	1.187	42.675	42.138	5.314	12.545	41854.712	29.685
320.096	22.953	70.328	622.630	231.938	1.194	42.783	42.301	5.135	12.658	41853.208	30.327
320.295	23.039	70.255	623.392	232.086	1.203	42.885	42.345	5.218	12.658	41889.010	29.340
320.496	23.060	70.331	623.865	231.534	1.205	42.923	42.387	5.264	12.676	41911.674	30.152
320.696	23.017	70.327	624.132	232.204	1.200	43.009	42.494	5.258	12.696	41911.326	29.932
320.897	22.953	70.466	624.423	232.738	1.186	43.126	42.598	5.392	12.696	41974.749	29.647
321.096	22.960	70.659	624.333	233.078	1.195	43.291	42.785	5.424	12.994	41979.883	31.128
321.296	23.043	70.614	624.578	233.659	1.199	43.461	42.905	5.385	12.999	41993.419	30.316
321.496	22.956	70.701	625.647	234.791	1.194	43.724	43.165	5.436	12.999	42052.136	30.267
321.696	22.974	70.840	625.114	235.254	1.212	43.533	42.960	5.334	12.583	42057.351	31.281
321.897	22.939	70.935	626.545	236.166	1.214	43.642	43.081	5.378	12.582	42139.257	30.821
322.097	23.007	70.941	626.512	236.631	1.224	43.574	43.071	5.348	12.467	42145.241	29.768
322.297	22.974	71.062	626.949	236.753	1.217	43.565	42.995	5.362	12.204	42147.319	30.826
322.497	22.907	71.004	627.147	237.718	1.213	43.730	43.185	5.398	12.204	42227.503	30.338
322.697	22.922	71.224	627.974	238.394	1.214	43.705	43.151	5.382	12.273	42230.818	31.089
322.897	22.933	71.299	627.444	239.211	1.224	43.674	43.102	5.402	12.279	42259.958	31.051
323.098	22.923	71.360	627.155	239.312	1.219	43.808	43.224	5.415	12.280	42299.933	31.550
323.298	22.849	71.403	627.404	239.520	1.209	43.956	43.383	5.461	12.090	42298.332	31.396
323.499	22.959	71.504	627.169	240.336	1.223	43.930	43.372	5.438	12.091	42361.431	31.073
323.699	22.892	71.387	626.821	240.720	1.218	44.265	43.726	5.525	12.071	42356.006	30.382
323.899	22.896	71.634	627.177	241.229	1.223	44.387	43.794	5.590	12.015	42363.242	31.380
324.100	22.914	71.672	627.474	241.795	1.221	44.769	44.206	5.714	12.015	42437.096	31.270
324.301	22.880	71.698	627.604	242.814	1.231	44.924	44.346	5.693	12.193	42433.667	30.426
324.502	22.954	71.757	627.308	243.406	1.246	45.025	44.469	5.721	12.242	42522.398	31.276
324.703	22.847	71.837	627.175	244.073	1.239	45.205	44.691	5.749	12.242	42546.630	30.448
324.902	22.828	72.004	627.600	244.801	1.236	45.521	44.985	5.874	12.431	42548.498	31.643
325.103	22.902	71.955	627.210	245.535	1.258	45.640	45.038	5.808	12.432	42685.653	30.908
325.303	22.914	72.084	627.649	245.627	1.251	45.840	45.263	5.906	12.412	42686.445	31.501
325.504	22.815	72.182	627.584	247.048	1.260	45.966	45.373	5.939	12.090	42731.401	31.544
325.704	22.915	72.183	627.944	247.268	1.254	46.222	45.672	5.817	12.091	42838.687	31.194
325.905	22.793	72.333	628.161	247.799	1.285	46.376	45.777	5.891	12.415	42837.693	31.402
326.106	22.804	72.421	628.102	247.606	1.277	46.520	46.005	5.951	12.582	42994.722	31.599
326.307	22.863	72.392	628.265	247.809	1.286	46.704	46.148	5.957	12.583	42997.196	31.226
326.508	22.758	72.585	628.863	248.758	1.287	46.702	46.110	5.820	12.280	42997.333	31.742
326.709	22.867	72.636	629.415	248.122	1.302	46.734	46.087	5.982	12.280	43171.326	31.989
326.909	22.830	72.664	629.033	249.388	1.304	46.793	46.183	5.942	12.280	43167.817	31.100
327.109	22.778	72.873	629.369	249.845	1.309	46.793	46.283	5.964	12.317	43259.143	32.082
327.310	22.792	73.016	629.169	250.317	1.322	46.868	46.265	6.014	12.318	43313.979	32.252
327.510	22.848	72.884	629.273	250.755	1.326	46.776	46.178	5.915	12.223	43312.782	31.084
327.711	22.809	73.077	627.997	251.271	1.314	46.867	46.218	5.903	12.167	43432.512	32.263
327.911	22.793	73.062	628.872	251.051	1.312	46.875	46.294	5.892	12.166	43431.688	31.446
328.113	22.799	73.160	627.844	252.134	1.315	47.062	46.474	6.089	12.317	43451.004	31.978
328.314	22.735	73.341	627.373	252.881	1.307	46.989	46.362	6.002	12.318	43531.132	32.383
328.513	22.801	73.294	627.348	253.593	1.314	46.982	46.385	5.935	12.318	43528.884	31.402
328.713	22.768	73.515	626.634	254.225	1.312	46.937	46.331	5.938	12.506	43607.321	32.175
328.913	22.784	73.425	626.135	254.673	1.319	47.040	46.459	6.059	12.507	43609.125	31.045
329.114	22.816	73.502	624.981	255.938	1.313	46.993	46.396	5.966	12.493	43609.116	31.215
329.314	22.680	73.702	624.202	255.702	1.303	47.154	46.575	6.038	12.469	43676.776	32.022
329.515	22.804	73.692	623.918	256.515	1.315	47.224	46.604	6.120	12.470	43679.089	31.479
329.715	22.738	73.869	624.164	256.939	1.297	47.284	46.668	6.051	12.217	43708.302	32.510
329.916	22.730	74.008	623.302	257.811	1.329	47.298	46.681	5.992	12.204	43738.598	32.405
330.117	22.751	73.956	622.722	257.797	1.328	47.491	46.879	6.076	12.204	43737.021	31.457
330.317	22.682	74.089	622.877	258.437	1.314	47.647	47.038	6.077	12.128	43804.269	32.192
330.518	22.676	74.076	622.609	258.842	1.331	47.743	47.151	6.107	12.128	43803.509	31.577
330.719	22.759	74.252	622.566	259.523	1.326	47.886	47.271	6.139	12.166	43817.367	32.526
330.919	22.673	74.205	622.821	260.483	1.331	48.019	47.357	6.159	12.317	43883.798	31.939
331.119	22.739	74.271	622.735	260.895	1.337	48.026	47.513	6.197	12.318	43887.307	32.000
331.321	22.733	74.316	622.717	261.019	1.353	48.020	47.392	6.182	12.131	43960.238	31.331
331.520	22.628	74.544	623.876	261.447	1.348	47.970	47.372	6.225	12.090	43975.658	32.285
331.720	22.632	74.460	622.903	262.185	1.352	47.954	47.405	6.182	12.090	43974.065	31.939
331.920	22.584	74.592	623.298	262.742	1.344	47.972	47.335	6.182	12.128	44044.061	31.577
332.120	22.715	74.664	622.656	263.665	1.349	47.892	47.274	6.163	12.128	44050.821	31.879
332.321	22.575	74.753	622.834	263.743	1.344	47.925	47.353	6.167	12.128	44070.185	31.671
332.521	22.686	74.847	622.381	264.711	1.342	47.897	47.299	6.028	12.128	44104.056	32.543
332.723	22.681	74.803	622.251	264.922	1.339	47.899	47.308	6.176	12.128	44100.352	31.561
332.922	22.596	74.988	621.933	265.621	1.338	47.919	47.324	6.168	12.152	44138.678	32.515
333.123	22.715	74.992	621.562	266.001	1.335	47.860	47.223	6.187	12.166	44138.241	31.215
333.322	22.727	75.067	621.356	266.546	1.341	47.831	47.209	6.167	12.166	44137.821	31.281
333.522	22.671	75.154	621.452	267.098	1.331	47.863	47.253	6.228	12.355	44166.864	31.753
333.723	22.748	75.347	620.734	267.277	1.341	47.732	47.091	6.246	12.356	44171.861	32.301
333.922	22.746	75.273	620.103	267.876	1.333	47.782	47.149	6.149	12.355	44182.606	31.879
334.122	22.682	75.348	619.673	268.932	1.333	47.818	47.203	6.225	12.393	44187.442	31.374
334.323	22.550	75.469	618.790	269.025	1.342	47.777	47.139	6.103	12.392	44184.967	31.901
334.522	22.579	75.617	619.032	269.979	1.345	47.931	47.273	6.227	12.538	44194.169	31.994
334.723	22.675	75.685	618.603	269.918	1.353	47.996	47.303	6.152	12.734	44194.775	32.362
334.922	22.738	75.648	618.490	270.676	1.350	48.106	47.516	6.322	12.734	44198.616	32.022
335.122	22.642	75.634	618.397	270.891	1.346	48.080	47.499	6.298	12.995	44210.243	31.013
335.322	22.581	75.820	617.998	271.701	1.345	48.403	47.806	6.271	12.998	44210.113	32.000
335.523	22.648	75.783	618.176	271.487	1.353	48.599	47.982	6.320	12.999	44238.631	31.413
335.723	22.689	75.823	617.752	272.603	1.361	48.701	48.117	6.304	12.015	44242.876	32.082
335.922	22.650	76.017	618.867	273.316	1.354	48.968	48.346	6.346	12.015	44245.884	33.009
336.122	22.556	75.989	619.324	273.996	1.357	49.381	48.750	6.538	12.135	44309.986	32.680
336.322	22.554	76.110	619.905	273.513	1.369	49.685	49.035	6.543	12.468	44311.967	32.526
336.522	22.568	76.231	620.845	274.681	1.359	49.934	49.324	6.540	12.469	44368.687	33.250
336.722	22.604	76.209	621.241	275.065	1.393	50.207	49.570	6.540	12.403	44439.807	33.376
336.923	22.616	76.307	621.963	275.330	1.372	50.308	49.614	6.549	12.393	44439.977	33.502
337.122	22.626	76.410	622.710	275.983	1.396	50.255	49.643	6.524	12.393	44604.436	33.118
337.322	22.614	76.340	623.547	276.415	1.388	50.538	49.823	6.583	12.053	44601.809	32.570
337.523	22.580	76.560	623.954	277.132	1.392	50.443	49.745	6.555	12.052	44602.779	33.606
337.723	22.560	76.651	623.101	277.565	1.396	50.556	49.808	6.561	12.062	44761.271	33.793
337.923	22.539	76.709	623.044	277.386	1.403	50.495	49.808	6.576	12.166	44759.258	33.562
338.123	22.572	76.830	622.949	278.025	1.405	50.589	49.945	6.529	12.166	44854.109	33.859
338.323	22.645	76.763	622.844	278.543	1.420	50.636	49.970	6.541	12.217	44891.602	32.647
338.524	22.570	76.907	622.323	279.147	1.414	50.736	50.022	6.609	12.242	44891.780	33.223
338.724	22.561	77.052	622.528	279.178	1.417	50.783	50.082	6.609	12.241	45002.608	33.650
338.924	22.603	77.180	622.218	279.322	1.434	50.701	49.991	6.658	12.242	45005.656	33.700
339.124	22.648	77.175	621.798	279.736	1.424	50.737	50.025	6.680	12.242	45040.351	34.127
339.324	22.593	77.291	621.304	280.208	1.416	50.835	50.177	6.668	12.242	45102.246	34.199
339.524	22.615	77.228	620.707	280.835	1.406	50.835	50.107	6.662	12.242	45103.063	32.987
339.724	22.530	77.395	620.736	280.667	1.423	50.920	50.247	6.691	12.242	45178.185	33.590
339.924	22.524	77.459	621.123	281.243	1.407	50.972	50.274	6.711	12.205	45179.907	33.683
340.124	22.558	77.419	620.602	281.400	1.417	50.823	50.104	6.645	12.166	45178.606	32.800
340.325	22.603	77.540	619.901	281.276	1.411	50.920	50.196	6.782	12.166	45249.976	33.294
340.527	22.534	77.574	620.069	282.385	1.414	50.897	50.251	6.638	12.053	45245.069	32.488
340.728	22.505	77.702	619.783	282.221	1.424	50.885	50.169	6.685	12.052	45275.454	32.904
340.928	22.578	77.695	618.993	282.411	1.411	50.907	50.223	6.619	12.053	45301.991	32.658
341.127	22.589	77.790	618.647	282.625	1.405	50.978	50.258	6.693	12.053	45301.279	32.844
341.327	22.670	77.933	618.161	283.039	1.407	50.955	50.195	6.616	12.053	45345.652	33.453
341.527	22.602	78.080	617.685	283.692	1.418	50.929	50.185	6.719	12.145	45346.849	33.678
341.728	22.655	78.016	616.963	283.563	1.409	50.890	50.159	6.655	12.355	45348.013	32.411
341.927	22.524	78.036	616.673	283.338	1.425	50.961	50.226	6.820	12.355	45380.161	32.669
342.128	22.553	78.294	616.092	283.954	1.426	50.930	50.216	6.721	12.252	45382.805	33.859
342.328	22.596	78.221	615.837	283.997	1.428	50.850	50.160	6.748	12.242	45395.750	32.663
342.528	22.619	78.236	615.298	285.015	1.414	50.901	50.194	6.681	12.242	45399.292	33.480
342.729	22.584	78.318	614.652	285.211	1.427	50.842	50.060	6.672	12.128	45397.780	32.702
342.929	22.597	78.350	613.907	284.495	1.410	50.874	50.160	6.743	12.128	45414.662	32.926
343.129	22.590	78.594	614.351	285.411	1.419	50.895	50.133	6.690	12.118	45416.174	33.859
343.330	22.522	78.656	613.942	285.642	1.413	50.815	50.097	6.726	12.090	45414.476	33.261
343.531	22.580	78.694	613.376	285.336	1.419	50.731	50.041	6.716	12.091	45423.427	33.601
343.730	22.594	78.718	613.146	285.599	1.420	50.756	50.003	6.687	12.035	45421.972	33.102
343.931	22.542	78.728	612.570	286.163	1.419	50.860	50.115	6.755	12.015	45420.508	32.713
344.130	22.514	78.840	612.155	285.769	1.414	50.726	49.996	6.741	12.015	45423.039	33.562
344.330	22.565	78.831	611.712	286.592	1.431	50.503	49.746	6.676	12.280	45422.764	33.173
344.531	22.467	78.924	611.219	286.144	1.414	50.383	49.673	6.542	12.280	45414.824	32.674
344.730	22.513	78.894	610.269	286.750	1.423	50.457	49.683	6.646	12.280	45415.916	32.466
344.931	22.443	78.965	610.502	286.645	1.441	50.442	49.643	6.667	12.242	45399.931	32.427
345.130	22.507	79.023	609.659	286.616	1.430	50.344	49.580	6.638	12.242	45396.341	32.345
345.330	22.560	79.106	609.093	286.650	1.429	50.397	49.618	6.677	12.291	45397.222	32.356
345.530	22.471	79.131	608.219	287.269	1.423	50.354	49.589	6.663	12.317	45366.279	32.235
345.730	22.442	79.217	608.058	287.340	1.419	50.199	49.434	6.593	12.317	45367.613	32.367
345.932	22.492	79.397	608.193	287.206	1.436	50.176	49.408	6.627	12.242	45359.002	33.069
346.131	22.564	79.384	607.893	287.510	1.427	49.993	49.293	6.592	12.242	45340.793	32.904
346.331	22.528	79.474	607.760	287.425	1.416	50.197	49.427	6.737	12.242	45340.025	33.382
346.532	22.559	79.398	607.456	287.354	1.413	50.036	49.294	6.620	12.243	45303.034	32.268
346.731	22.482	79.465	606.638	287.940	1.408	49.955	49.248	6.663	12.242	45295.538	32.120
346.931	22.480	79.666	605.819	287.598	1.401	50.136	49.389	6.809	12.204	45300.511	33.392
347.131	22.559	79.530	605.516	287.441	1.413	49.975	49.180	6.598	12.128	45256.873	32.356
347.332	22.562	79.550	605.111	287.680	1.404	49.893	49.117	6.643	12.129	45255.903	32.170
347.532	22.517	79.765	604.555	287.661	1.402	49.962	49.209	6.655	12.614	45237.403	33.683
347.734	22.466	79.730	604.663	287.960	1.400	49.962	49.259	6.766	12.620	45217.359	32.334
347.933	22.463	79.824	603.770	288.235	1.408	49.701	49.013	6.666	12.620	45219.575	32.921
348.134	22.567	79.743	603.460	287.819	1.407	49.695	48.978	6.608	12.318	45181.791	32.213
348.333	22.488	79.938	603.639	288.044	1.396	49.781	48.992	6.547	12.317	45179.875	33.146
348.534	22.538	79.850	602.554	287.740	1.406	49.754	49.037	6.718	12.318	45183.174	33.129
348.733	22.469	79.946	602.363	288.094	1.397	49.706	49.052	6.673	12.317	45138.970	32.499
348.933	22.411	79.926	601.734	288.144	1.396	49.759	49.028	6.729	12.317	45138.226	32.268
349.133	22.553	79.964	601.807	288.050	1.411	49.694	48.949	6.723	12.347	45119.808	32.071
349.334	22.489	79.991	601.432	288.524	1.398	49.722	49.000	6.690	12.356	45108.391	31.632
349.535	22.517	80.117	601.715	288.251	1.406	49.529	48.813	6.575	12.355	45111.860	32.817
349.735	22.481	80.033	601.235	288.371	1.402	49.700	48.997	6.654	12.355	45087.142	31.863
349.936	22.429	80.077	601.468	288.717	1.394	49.810	49.110	6.838	12.355	45085.436	31.890
350.136	22.466	80.184	601.321	288.962	1.410	49.832	49.136	6.713	12.351	45082.946	32.625
350.335	22.553	80.206	601.255	288.567	1.404	49.981	49.306	6.874	12.318	45076.316	33.129
350.536	22.478	80.113	601.326	288.653	1.425	49.785	49.057	6.661	12.318	45072.790	31.693
350.736	22.417	80.317	600.741	288.776	1.407	49.816	49.081	6.766	12.407	45076.146	32.181
350.936	22.483	80.215	600.393	289.084	1.411	49.886	49.132	6.676	12.469	45075.240	31.402
351.136	22.475	80.396	600.355	289.407	1.410	49.958	49.214	6.833	12.469	45076.679	32.669
351.336	22.539	80.317	599.943	289.462	1.399	50.055	49.298	6.849	12.545	45080.738	31.939
351.537	22.480	80.335	599.306	289.749	1.416	49.970	49.308	6.861	12.545	45081.434	32.011
351.736	22.575	80.428	598.853	289.647	1.407	49.998	49.269	6.833	12.545	45088.654	31.928
351.937	22.518	80.401	598.465	289.882	1.401	50.121	49.422	6.828	12.280	45088.023	31.703
352.137	22.501	80.489	597.954	289.843	1.414	50.031	49.304	6.751	12.280	45089.867	32.383
352.337	22.540	80.500	597.898	290.309	1.411	49.961	49.224	6.758	12.250	45102.812	32.120
352.538	22.519	80.480	598.151	290.245	1.404	50.196	49.434	6.774	12.204	45100.993	31.846
352.737	22.422	80.663	597.963	290.329	1.400	50.159	49.424	6.748	12.204	45101.381	32.855
352.937	22.474	80.569	598.342	291.016	1.400	50.129	49.363	6.790	12.278	45115.328	31.808
353.137	22.572	80.680	598.141	289.957	1.408	50.252	49.574	6.803	12.280	45118.134	32.493
353.338	22.489	80.826	598.431	290.780	1.402	50.190	49.413	6.730	12.279	45134.911	33.239
353.538	22.561	80.746	598.301	291.106	1.389	50.356	49.636	6.792	12.128	45140.418	33.085
353.739	22.407	80.758	598.428	291.149	1.391	50.382	49.589	6.824	12.128	45135.639	32.131
353.940	22.559	80.746	598.187	291.390	1.407	50.359	49.627	6.758	12.137	45168.765	32.455
354.140	22.525	80.840	598.146	291.710	1.420	50.424	49.630	6.787	12.166	45168.434	32.729
354.341	22.451	80.954	597.996	291.348	1.412	50.498	49.743	6.873	12.166	45177.094	32.713
354.540	22.411	80.870	598.147	291.521	1.409	50.437	49.672	6.815	11.986	45195.634	32.329
354.740	22.516	80.942	597.455	291.834	1.398	50.555	49.831	6.820	11.977	45197.954	32.597
354.941	22.446	81.057	597.916	292.028	1.414	50.593	49.805	6.778	11.976	45230.013	33.047
355.141	22.484	80.970	597.395	292.083	1.416	50.619	49.894	6.824	11.863	45228.162	32.515
355.341	22.415	81.044	597.481	292.504	1.415	50.622	49.858	6.822	11.863	45226.351	32.065
355.541	22.513	81.065	596.894	291.979	1.417	50.635	49.923	6.801	11.861	45265.315	32.235
355.741	22.556	81.138	597.282	291.740	1.421	50.773	49.969	6.784	11.826	45268.120	32.614
355.941	22.457	81.199	597.577	292.396	1.416	50.856	50.069	6.849	11.826	45290.881	32.734
356.141	22.549	81.128	597.260	292.214	1.421	50.993	50.214	6.879	12.054	45303.834	32.433
356.341	22.418	81.197	597.933	292.166	1.414	51.082	50.337	6.980	12.128	45299.678	32.334
356.541	22.457	81.345	597.638	292.515	1.425	51.061	50.313	6.970	12.128	45339.047	33.217
356.741	22.540	81.208	597.611	292.833	1.419	51.269	50.546	6.984	12.091	45338.594	32.893
356.943	22.489	81.442	598.055	292.892	1.432	51.279	50.567	6.933	12.090	45352.946	33.442
357.142	22.506	81.456	597.975	293.266	1.426	51.447	50.654	6.870	12.091	45396.624	33.798
357.342	22.623	81.431	597.765	293.072	1.440	51.568	50.856	6.932	12.128	45398.233	33.107
357.542	22.475	81.594	598.257	293.719	1.428	51.763	51.053	7.147	12.128	45461.874	33.760
357.742	22.583	81.496	598.196	293.639	1.437	51.805	51.053	7.015	12.312	45466.555	33.201
357.942	22.573	81.637	598.426	293.887	1.447	52.060	51.283	7.004	12.507	45467.873	34.012
358.142	22.530	81.742	598.712	293.499	1.433	52.339	51.490	7.201	12.507	45552.771	33.968
358.342	22.567	81.645	599.035	293.908	1.441	52.446	51.689	7.137	12.507	45553.273	33.535
358.542	22.479	81.805	598.669	294.066	1.459	52.407	51.587	7.135	12.506	45607.001	33.705
358.742	22.481	81.798	599.270	293.552	1.442	52.705	51.880	7.121	12.506	45652.247	33.705
358.942	22.535	81.897	599.139	294.242	1.459	52.795	51.984	7.136	12.280	45652.466	33.870
359.142	22.507	81.718	599.575	294.371	1.462	52.985	52.204	7.228	12.280	45758.168	32.745
359.342	22.574	81.879	599.379	294.747	1.461	53.195	52.371	7.282	12.345	45764.030	34.007
359.543	22.546	81.868	600.171	294.485	1.468	53.256	52.491	7.145	12.507	45764.014	33.387
359.743	22.521	82.075	600.261	295.121	1.468	53.479	52.701	7.334	12.506	45886.461	34.160
359.943	22.579	82.021	600.572	294.680	1.469	53.700	52.942	7.298	12.676	45888.539	33.700
360.144	22.484	82.104	601.220	294.564	1.476	53.876	53.002	7.293	12.696	45986.252	33.519
360.344	22.573	82.219	601.555	294.500	1.492	53.886	53.060	7.324	12.696	46019.872	34.396
360.544	22.562	82.183	600.877	294.943	1.512	53.698	52.837	7.225	12.356	46018.101	33.601
360.745	22.551	82.175	600.635	295.282	1.498	53.713	52.976	7.245	12.356	46156.509	33.310
360.945	22.563	82.228	600.359	295.158	1.508	53.741	52.888	7.209	12.321	46159.541	33.727
361.144	22.469	82.225	600.090	295.219	1.495	53.886	53.118	7.354	12.053	46184.574	33.365
361.344	22.409	82.282	600.298	295.158	1.496	53.835	53.024	7.368	12.053	46258.621	33.349
361.546	22.405	82.445	600.024	294.642	1.508	53.724	52.855	7.237	11.998	46261.500	34.511
361.745	22.408	82.478	599.711	295.525	1.481	53.849	52.952	7.339	11.976	46337.641	33.848
361.946	22.495	82.605	599.699	295.051	1.494	53.740	52.886	7.248	11.977	46345.541	34.363
362.147	22.542	82.548	599.572	295.263	1.493	53.759	52.921	7.328	11.901	46342.622	33.387
362.346	22.438	82.716	599.805	295.008	1.487	53.685	52.799	7.265	11.901	46400.692	33.957
362.548	22.460	82.781	598.889	295.452	1.487	53.653	52.763	7.151	11.901	46403.570	34.363
362.748	22.442	82.758	598.368	294.773	1.506	53.394	52.530	7.045	11.938	46422.151	34.105
362.947	22.458	82.879	598.279	294.340	1.500	53.432	52.615	7.249	11.939	46438.540	34.434
363.147	22.453	82.944	598.366	295.132	1.478	53.367	52.539	7.139	12.012	46437.352	34.314
363.347	22.477	82.850	596.898	295.391	1.490	53.302	52.435	7.202	12.053	46441.791	32.998
363.548	22.465	83.038	597.276	295.105	1.492	53.099	52.256	7.084	12.052	46444.079	34.155
363.748	22.538	82.862	596.393	295.017	1.484	53.118	52.298	7.026	12.015	46441.556	33.195
363.948	22.448	82.954	596.534	295.167	1.495	53.043	52.136	7.087	12.015	46428.676	32.373
364.149	22.515	82.975	596.050	294.944	1.493	52.924	52.132	7.095	12.015	46429.436	32.543
364.349	22.583	83.120	595.661	294.414	1.489	52.941	52.102	7.112	11.977	46410.872	33.469
364.550	22.488	83.302	595.413	294.582	1.486	52.909	52.066	7.169	11.976	46405.818	33.716
364.752	22.563	83.143	594.815	294.306	1.489	52.760	51.924	7.080	12.034	46405.948	32.778
364.952	22.581	83.229	594.381	294.504	1.495	52.602	51.723	7.037	12.128	46374.543	33.458
365.152	22.486	83.401	594.224	294.340	1.466	52.747	51.924	7.159	12.128	46369.765	33.837
365.352	22.464	83.330	593.634	294.357	1.479	52.654	51.835	7.077	11.982	46347.805	33.913
365.552	22.420	83.382	593.121	294.226	1.486	52.437	51.635	6.974	11.976	46326.499	33.601
365.752	22.452	83.457	593.081	294.285	1.474	52.463	51.635	7.063	11.977	46327.332	33.157
365.953	22.531	83.336	592.035	294.659	1.462	52.405	51.677	6.978	12.015	46282.013	32.570
366.153	22.474	83.541	592.045	293.842	1.469	52.374	51.563	7.030	12.015	46283.638	34.001
366.354	22.513	83.598	591.100	294.297	1.459	52.285	51.475	7.006	11.961	46282.045	33.573
366.555	22.429	83.616	590.943	294.527	1.469	52.097	51.242	6.924	11.750	46231.794	33.140
366.754	22.584	83.555	590.996	294.667	1.470	52.222	51.451	7.018	11.750	46234.057	33.530
366.954	22.589	83.535	590.309	294.167	1.469	52.182	51.352	6.984	11.961	46199.670	33.118
367.154	22.452	83.631	590.300	294.149	1.454	52.313	51.505	7.111	12.015	46187.048	33.190
367.355	22.532	83.566	589.202	293.230	1.438	52.367	51.563	7.069	12.015	46191.358	33.299
367.554	22.441	83.680	589.979	294.180	1.463	52.300	51.447	7.079	12.317	46150.671	33.151
367.755	22.417	83.671	589.803	294.318	1.452	52.622	51.769	7.113	12.317	46149.111	33.349
367.955	22.472	83.792	589.395	293.959	1.453	52.738	51.900	7.156	12.322	46146.047	33.787
368.156	22.508	83.754	589.953	294.180	1.471	52.879	52.117	7.201	12.356	46138.228	34.111
368.356	22.441	83.781	590.518	294.058	1.446	53.064	52.221	7.293	12.355	46134.420	33.535
368.557	22.552	83.738	590.559	293.725	1.469	53.106	52.357	7.199	12.591	46164.037	33.798
368.757	22.448	83.832	591.992	293.834	1.454	53.461	52.613	7.229	12.734	46159.153	33.754
368.957	22.547	83.948	591.985	294.361	1.465	53.672	52.869	7.318	12.734	46161.999	33.875
369.157	22.554	83.853	593.227	294.351	1.467	54.073	53.254	7.263	12.696	46215.857	33.332
369.357	22.584	84.030	593.718	294.579	1.482	54.212	53.325	7.417	12.696	46221.096	34.495
369.557	22.572	84.003	594.822	294.545	1.468	54.615	53.782	7.495	12.697	46288.877	34.572
369.758	22.517	84.065	596.072	294.057	1.519	54.314	53.492	7.284	12.734	46322.319	34.561
369.959	22.602	84.014	596.486	294.430	1.498	54.675	53.807	7.421	12.735	46322.950	33.902
370.159	22.558	84.011	597.280	294.757	1.520	54.726	53.848	7.462	12.606	46452.124	33.420
370.360	22.585	84.153	597.078	294.001	1.527	54.754	53.950	7.510	12.469	46457.638	34.352
370.560	22.598	84.128	597.863	294.406	1.515	54.848	53.946	7.441	12.469	46485.542	34.555
370.760	22.545	84.269	598.044	294.853	1.527	55.004	54.192	7.453	12.544	46579.641	34.423
370.961	22.613	84.303	598.680	294.531	1.515	54.911	54.026	7.373	12.545	46582.099	34.895
371.161	22.624	84.226	598.215	294.323	1.500	55.056	54.216	7.532	12.546	46690.938	34.094
371.362	22.509	84.381	598.513	293.464	1.507	55.095	54.160	7.467	12.885	46691.642	34.736
371.563	22.525	84.387	598.199	294.532	1.528	55.051	54.184	7.511	12.885	46689.596	33.908
371.763	22.518	84.424	598.891	294.752	1.529	55.152	54.229	7.421	12.761	46787.398	33.804
371.963	22.478	84.488	598.844	294.331	1.539	55.105	54.223	7.483	12.506	46790.762	34.692
372.164	22.478	84.508	598.293	294.305	1.531	55.132	54.274	7.506	12.506	46833.825	34.292
372.363	22.453	84.578	598.702	294.528	1.534	55.220	54.299	7.456	12.193	46871.650	34.275
372.563	22.495	84.670	598.705	294.183	1.525	55.172	54.188	7.426	12.166	46871.690	34.659
372.763	22.564	84.585	597.667	294.581	1.536	55.040	54.159	7.384	12.166	46929.121	33.842
372.963	22.504	84.597	597.564	294.572	1.530	55.152	54.230	7.481	12.318	46930.027	33.239
373.164	22.523	84.644	596.852	294.237	1.529	55.033	54.121	7.450	12.318	46931.571	33.321
373.364	22.550	84.688	596.000	294.221	1.524	55.151	54.245	7.483	12.341	46972.452	33.765
373.565	22.589	84.787	595.939	293.661	1.539	55.120	54.213	7.439	12.431	46974.821	34.029
373.764	22.501	84.898	596.149	294.338	1.533	55.214	54.295	7.454	12.431	47000.517	34.961
373.964	22.526	84.849	595.939	294.325	1.535	55.262	54.376	7.547	12.654	47004.317	33.782
374.164	22.590	84.957	595.975	293.743	1.525	55.269	54.319	7.408	12.735	47009.758	34.944
374.364	22.557	84.885	595.133	293.838	1.531	55.299	54.463	7.529	12.735	47036.837	34.391
374.564	22.439	85.021	595.155	293.953	1.541	55.124	54.198	7.407	12.243	47033.101	35.191
374.765	22.583	85.023	595.256	293.748	1.536	55.158	54.273	7.483	12.242	47041.939	34.846
374.964	22.470	85.061	595.333	293.897	1.539	55.215	54.331	7.511	12.242	47051.278	34.023
375.164	22.501	85.183	594.352	293.617	1.549	55.098	54.223	7.418	12.280	47055.854	34.692
375.364	22.548	85.144	594.707	293.916	1.546	55.019	54.132	7.338	12.280	47065.338	34.561
375.565	22.539	85.126	594.756	294.016	1.543	55.125	54.182	7.398	12.239	47064.869	33.639
375.765	22.490	85.265	594.163	293.806	1.527	55.200	54.329	7.469	12.204	47065.646	34.610
375.965	22.424	85.268	594.253	293.495	1.544	54.991	54.107	7.300	12.204	47062.508	33.815
376.165	22.540	85.308	594.144	293.608	1.530	55.065	54.218	7.472	12.355	47066.551	34.155
376.365	22.422	85.301	594.113	294.161	1.524	55.157	54.169	7.486	12.356	47064.788	33.617
376.565	22.452	85.378	593.546	294.301	1.529	55.005	54.122	7.402	12.356	47066.632	33.579
376.765	22.463	85.384	593.601	293.944	1.540	54.940	54.066	7.340	12.507	47064.837	33.859
376.966	22.405	85.453	593.664	293.944	1.514	54.972	54.023	7.382	12.507	47067.384	34.144
377.166	22.379	85.416	593.081	293.738	1.535	54.895	54.035	7.488	12.507	47067.546	34.314
377.367	22.400	85.332	592.869	293.746	1.520	55.208	54.285	7.502	12.507	47065.775	34.051
377.568	22.468	85.412	591.738	294.328	1.511	55.389	54.513	7.586	12.507	47063.519	34.182
377.768	22.466	85.463	592.090	293.612	1.511	55.686	54.777	7.599	12.657	47063.147	34.210
377.969	22.493	85.574	591.820	293.684	1.509	56.130	55.194	7.702	12.659	47083.029	34.451
378.169	22.393	85.550	592.281	293.233	1.532	56.564	55.612	7.754	12.658	47077.806	34.791
378.369	22.453	85.671	592.693	293.749	1.539	57.108	56.190	7.863	12.848	47084.897	35.432
378.570	22.464	85.575	593.221	293.370	1.557	57.430	56.572	7.767	12.848	47171.873	34.566
378.770	22.374	85.632	593.679	293.610	1.572	58.084	57.136	7.886	12.826	47166.674	34.824
378.972	22.423	85.657	595.051	293.813	1.585	58.412	57.451	8.060	12.735	47259.876	35.219
379.171	22.335	85.771	595.931	294.006	1.611	58.383	57.356	7.923	12.734	47335.500	35.032
379.371	22.422	85.726	595.961	293.657	1.605	58.727	57.709	7.993	12.665	47336.810	35.262
379.571	22.441	85.738	596.280	293.645	1.622	58.647	57.575	7.820	12.659	47538.414	35.010
379.772	22.332	85.925	595.609	293.701	1.615	58.763	57.677	7.892	12.658	47535.657	35.317
379.972	22.365	86.029	595.667	293.577	1.614	59.056	58.029	7.915	12.885	47567.942	35.816
380.173	22.383	86.098	595.365	293.770	1.625	58.951	57.940	7.875	12.885	47724.373	36.206
380.375	22.384	86.208	595.555	293.709	1.635	58.991	57.972	7.892	12.919	47723.953	36.189
380.574	22.438	86.183	595.233	293.389	1.629	59.118	58.153	7.932	13.301	47862.417	36.502
380.774	22.474	86.186	594.856	294.173	1.638	59.155	58.182	7.858	13.302	47890.151	35.142
380.975	22.349	86.270	595.083	294.296	1.620	59.478	58.415	7.988	13.428	47885.768	35.772
381.175	22.361	86.273	594.852	293.546	1.607	59.498	58.495	7.966	13.491	48032.335	35.421
381.377	22.470	86.381	595.309	293.672	1.635	59.410	58.432	7.801	13.491	48035.722	35.153
381.576	22.451	86.406	594.821	293.791	1.627	59.294	58.306	7.873	13.037	48094.326	35.032
381.776	22.495	86.445	594.844	293.703	1.648	59.447	58.530	7.887	13.037	48159.601	35.641
381.977	22.337	86.566	594.477	293.258	1.647	59.343	58.402	7.859	13.036	48156.585	35.476
382.176	22.388	86.537	594.315	294.102	1.634	59.579	58.501	7.910	13.151	48265.052	35.345
382.377	22.431	86.587	594.134	294.312	1.654	59.551	58.499	7.711	13.151	48265.974	35.301
382.577	22.404	86.838	594.005	293.492	1.652	59.675	58.706	7.850	13.427	48271.189	36.370
382.778	22.313	86.769	593.471	293.993	1.644	59.650	58.655	7.929	13.603	48351.017	35.591
382.979	22.310	86.835	592.628	293.799	1.646	59.536	58.416	7.928	13.603	48352.707	35.838
383.180	22.471	86.848	592.968	293.575	1.652	59.464	58.437	7.852	13.567	48417.594	36.129
383.379	22.432	86.852	592.166	293.509	1.663	59.527	58.543	7.854	13.567	48428.048	35.339
383.579	22.325	87.050	592.301	293.169	1.656	59.561	58.480	7.751	13.567	48427.385	36.886
383.779	22.315	87.077	591.718	293.422	1.653	59.592	58.522	7.828	13.150	48477.645	35.877
383.980	22.303	87.054	590.898	293.641	1.651	59.542	58.483	7.786	13.150	48477.410	35.674
384.181	22.288	87.167	590.921	293.458	1.657	59.477	58.343	7.836	13.314	48491.843	36.228
384.382	22.396	87.213	590.152	293.397	1.648	59.458	58.459	7.746	13.529	48520.902	36.134
384.582	22.321	87.310	590.151	293.229	1.654	59.478	58.409	7.892	13.529	48519.059	36.617
384.782	22.385	87.227	588.995	292.479	1.643	59.504	58.553	7.808	13.458	48543.040	35.761
384.982	22.323	87.314	588.654	293.073	1.637	59.541	58.536	7.822	13.453	48541.739	35.707
385.182	22.344	87.435	588.579	292.952	1.641	59.411	58.382	7.944	13.453	48544.730	36.381
385.382	22.246	87.453	588.678	292.348	1.635	59.443	58.499	7.910	13.301	48559.632	35.860
385.583	22.306	87.511	588.459	292.562	1.636	59.478	58.414	7.807	13.301	48560.109	35.811
385.783	22.376	87.523	588.256	292.380	1.637	59.555	58.532	7.955	13.221	48571.477	36.173
385.984	22.275	87.627	588.545	292.282	1.644	59.449	58.454	7.970	13.036	48572.084	36.112
386.184	22.290	87.707	588.777	292.385	1.637	59.535	58.517	7.872	13.036	48573.822	36.518
386.384	22.271	87.769	588.305	292.423	1.641	59.492	58.477	7.857	13.098	48584.026	36.036
386.584	22.347	87.828	588.067	291.696	1.631	59.464	58.407	8.000	13.112	48586.088	36.452
386.785	22.362	87.762	587.983	291.950	1.647	59.632	58.557	7.926	13.112	48590.098	35.975
386.985	22.273	87.796	587.609	292.174	1.645	59.607	58.561	7.919	13.150	48589.831	35.953
387.185	22.239	87.912	588.122	292.423	1.656	59.247	58.181	7.895	13.150	48589.710	35.745
387.385	22.385	87.832	587.599	291.996	1.644	59.446	58.458	8.161	13.134	48601.531	35.855
387.585	22.281	88.042	587.858	291.947	1.636	59.453	58.487	7.890	12.999	48602.364	36.743
387.785	22.290	87.917	587.829	292.191	1.643	59.352	58.254	7.846	12.999	48600.092	35.707
387.985	22.361	88.030	587.649	291.825	1.630	59.498	58.440	7.906	13.204	48599.591	35.487
388.185	22.350	88.073	587.478	291.689	1.646	59.383	58.307	7.759	13.340	48602.922	36.853
388.385	22.368	88.136	587.313	291.725	1.650	59.419	58.354	7.872	13.340	48602.388	36.727
388.587	22.350	88.103	587.417	291.409	1.658	59.497	58.404	7.771	13.378	48601.394	35.624
388.786	22.369	88.097	587.567	291.399	1.653	59.394	58.392	7.887	13.377	48603.383	35.849
388.987	22.207	88.331	587.801	291.485	1.652	59.474	58.422	7.851	13.377	48597.399	36.008
389.186	22.262	88.304	587.358	291.643	1.656	59.348	58.331	7.938	13.302	48597.537	36.414
389.387	22.394	88.334	588.218	291.775	1.648	59.513	58.485	7.763	13.302	48597.771	35.646
389.587	22.312	88.395	587.918	291.070	1.639	59.609	58.594	7.885	13.208	48595.685	36.326
389.787	22.307	88.471	588.577	291.257	1.644	59.587	58.528	7.889	13.074	48597.125	36.085
389.987	22.348	88.343	587.923	291.483	1.632	60.032	59.032	8.081	13.075	48599.930	35.827
390.187	22.278	88.545	588.371	291.685	1.636	60.164	59.163	8.110	13.334	48603.916	36.414
390.388	22.327	88.498	589.553	291.717	1.647	60.394	59.367	8.024	13.340	48603.536	36.452
390.589	22.353	88.431	588.981	291.536	1.634	60.852	59.810	8.167	13.340	48650.166	35.992
390.789	22.299	88.554	589.432	292.231	1.650	61.478	60.446	8.344	13.377	48651.718	36.392
390.989	22.396	88.606	590.293	291.423	1.671	61.942	60.875	8.408	13.377	48675.174	37.401
391.189	22.327	88.605	591.179	292.008	1.659	62.472	61.402	8.488	13.404	48765.279	36.677
391.390	22.315	88.755	592.703	291.688	1.665	63.096	62.119	8.545	13.491	48766.444	37.346
391.590	22.419	88.763	593.661	291.890	1.668	63.858	62.768	8.732	13.491	48969.633	37.922
391.790	22.333	88.913	595.188	292.267	1.686	64.617	63.626	8.859	13.619	48979.651	38.498
391.990	22.379	88.803	596.113	292.222	1.703	65.457	64.462	8.987	13.641	48976.708	37.599
392.190	22.325	88.918	598.425	292.341	1.738	66.117	65.127	8.963	13.641	49286.529	38.920
392.390	22.288	89.028	600.083	292.185	1.761	66.702	65.713	8.878	13.604	49286.795	39.123
392.591	22.356	89.083	601.928	292.374	1.760	66.874	65.914	9.122	13.604	49468.461	38.739
392.791	22.200	89.173	603.183	293.054	1.780	67.108	66.198	9.132	13.607	49678.127	38.481
392.993	22.322	89.257	604.062	293.209	1.791	67.550	66.606	9.206	13.679	49682.630	39.205
393.193	22.235	89.428	604.792	292.247	1.826	67.743	66.767	9.004	13.679	50078.255	39.523
393.395	22.205	89.555	604.795	293.410	1.827	67.945	66.998	8.777	13.629	50076.695	39.156
393.594	22.290	89.701	604.934	292.897	1.845	68.141	67.134	8.996	13.604	50095.396	39.469
393.794	22.214	89.799	604.418	293.168	1.842	68.356	67.359	8.943	13.603	50439.403	39.490
393.994	22.270	89.743	604.038	293.514	1.852	68.520	67.586	9.117	13.943	50438.950	38.893
394.196	22.229	89.846	602.766	293.112	1.862	68.683	67.673	9.067	13.944	50685.543	38.937
394.395	22.180	90.098	602.285	293.268	1.851	68.745	67.696	9.099	13.943	50745.117	39.183
394.595	22.263	90.262	601.454	292.820	1.864	68.966	68.006	9.168	13.604	50751.294	40.028
394.796	22.196	90.301	600.717	293.200	1.866	68.969	67.920	9.023	13.604	51004.589	39.134
394.996	22.283	90.480	599.943	293.260	1.861	69.169	68.117	9.186	13.487	51009.990	39.863
395.197	22.222	90.539	599.697	293.337	1.877	69.292	68.272	9.139	13.377	51081.272	39.353
395.397	22.309	90.709	598.622	293.450	1.866	69.098	68.095	9.071	13.377	51227.467	39.485
395.599	22.270	90.866	598.236	293.534	1.865	69.269	68.307	8.971	13.529	51222.268	39.441
395.798	22.328	90.962	597.646	293.056	1.866	69.291	68.256	9.020	13.529	51404.580	39.200
395.999	22.216	91.207	597.586	292.999	1.868	69.245	68.245	9.076	13.529	51405.720	40.099
396.198	22.320	91.307	596.705	293.378	1.864	69.326	68.306	8.932	13.491	51409.165	39.946
396.400	22.229	91.276	596.405	292.984	1.877	69.463	68.397	8.942	13.491	51548.187	39.507
396.599	22.274	91.518	595.598	293.370	1.882	69.499	68.473	9.077	13.523	51552.812	40.351
396.799	22.287	91.534	595.340	293.765	1.894	69.616	68.622	9.333	13.604	51627.522	39.600
396.999	22.345	91.693	594.351	292.910	1.888	69.598	68.545	9.163	13.604	51671.443	40.461
397.199	22.330	91.780	594.778	293.154	1.889	69.507	68.551	9.241	13.308	51667.829	39.776
397.399	22.373	91.887	594.690	293.480	1.887	69.557	68.500	9.235	13.265	51763.117	39.962
397.599	22.235	92.037	594.702	293.595	1.870	69.503	68.455	9.199	13.264	51760.465	39.913
397.799	22.237	92.150	593.224	292.918	1.878	69.624	68.680	9.119	13.905	51781.956	39.737
398.000	22.216	92.221	593.576	293.057	1.889	69.469	68.468	9.141	13.905	51832.086	39.414
398.202	22.353	92.377	592.781	293.094	1.896	69.502	68.446	8.972	13.878	51836.048	39.957
398.401	22.381	92.467	592.343	293.075	1.872	69.488	68.436	8.991	13.641	51888.749	39.688
398.603	22.271	92.595	591.922	292.911	1.888	69.424	68.457	9.236	13.641	51888.078	39.348
398.802	22.355	92.675	591.498	292.928	1.874	69.588	68.559	9.133	13.511	51893.795	40.379
399.004	22.257	92.809	590.854	293.042	1.873	69.548	68.447	8.967	13.453	51927.972	39.600
399.204	22.323	92.982	590.894	292.197	1.880	69.600	68.540	9.180	13.453	51931.675	41.037
399.406	22.359	92.964	590.308	293.013	1.888	69.522	68.478	9.087	13.793	51949.949	39.836
399.605	22.237	93.107	589.923	292.640	1.894	69.498	68.483	9.096	13.792	51961.228	39.644
399.805	22.342	93.241	589.436	292.729	1.883	69.479	68.388	9.117	13.816	51966.241	40.598
400.007	22.257	93.330	589.898	293.190	1.885	69.465	68.396	8.983	14.170	51982.210	39.858
400.206	22.307	93.358	588.722	292.369	1.908	69.616	68.485	9.188	14.170	51984.862	40.505
400.406	22.355	93.343	588.572	292.333	1.877	69.959	68.933	9.312	14.274	51988.589	40.110
400.607	22.306	93.525	588.470	292.400	1.884	70.285	69.260	9.200	14.359	51997.944	39.222
400.807	22.330	93.630	588.420	292.607	1.899	70.887	69.811	9.345	14.359	52002.804	41.037
401.007	22.357	93.641	588.958	292.572	1.896	71.676	70.596	9.378	14.510	52053.152	40.560
401.208	22.337	93.753	588.589	293.211	1.892	72.412	71.306	9.564	14.511	52063.381	40.839
401.408	22.400	93.864	589.193	292.491	1.893	73.401	72.442	9.774	14.511	52064.982	41.125
401.608	22.304	94.111	590.858	292.610	1.918	74.328	73.340	9.872	14.510	52236.079	42.046
401.808	22.334	94.066	591.462	292.622	1.967	75.387	74.318	10.160	14.511	52234.996	41.788
402.008	22.351	94.211	593.777	292.900	1.990	76.227	75.180	10.118	14.612	52384.861	41.761
402.210	22.362	94.330	595.184	293.617	2.057	76.617	75.479	9.822	14.738	52532.446	42.391
402.410	22.409	94.551	597.236	293.141	2.062	77.041	75.881	9.962	14.738	52535.923	43.307
402.610	22.385	94.542	598.093	293.362	2.090	77.340	76.242	9.947	14.702	52898.688	42.249
402.811	22.349	94.682	599.229	293.808	2.095	77.841	76.736	10.230	14.700	52899.100	42.304
403.011	22.362	94.948	600.521	293.746	2.133	78.376	77.171	10.352	14.700	52927.456	42.704
403.212	22.390	95.044	600.670	293.828	2.156	78.554	77.371	10.150	14.663	53245.711	43.543
403.411	22.373	95.117	601.885	293.572	2.153	78.912	77.715	10.224	14.662	53246.010	43.154
403.612	22.375	95.310	602.336	294.581	2.174	79.138	77.888	10.388	14.663	53483.983	43.592
403.812	22.301	95.505	602.937	293.529	2.184	79.377	78.069	10.137	14.662	53572.649	44.272
404.012	22.246	95.554	603.911	294.124	2.178	79.450	78.189	10.223	14.662	53568.056	43.351
404.212	22.238	95.793	603.925	294.300	2.197	79.483	78.228	10.000	14.662	53854.631	43.658
404.413	22.338	95.907	603.649	293.492	2.193	79.644	78.363	10.276	14.662	53858.812	43.751
404.613	22.355	96.019	604.988	293.542	2.204	79.701	78.484	10.230	14.663	53923.609	43.806
404.813	22.291	96.265	604.654	293.916	2.219	79.709	78.445	10.057	14.775	54091.416	44.190
405.013	22.254	96.393	605.461	293.399	2.226	79.705	78.426	10.147	14.775	54088.821	44.508
405.213	22.267	96.596	605.640	293.443	2.213	79.735	78.398	10.124	14.775	54278.483	44.201
405.414	22.280	96.531	606.538	294.430	2.229	79.766	78.420	10.063	14.662	54278.798	43.099
405.614	22.335	96.628	606.044	293.823	2.219	79.796	78.394	10.168	14.663	54283.391	43.697
405.815	22.259	96.914	606.183	294.186	2.215	79.680	78.315	9.947	14.485	54425.696	44.530
406.015	22.290	96.877	605.782	294.000	2.220	79.693	78.346	10.117	14.322	54422.607	43.543
406.216	22.273	97.173	605.683	293.823	2.210	79.536	78.204	10.116	14.322	54486.693	44.091
406.417	22.202	97.273	605.471	293.544	2.229	79.509	78.187	10.104	14.096	54524.646	43.384
406.618	22.213	97.376	605.217	293.204	2.208	79.477	78.163	10.257	14.095	54525.156	43.417
406.818	22.204	97.556	604.660	293.691	2.201	79.427	78.019	10.080	14.095	54594.133	44.009
407.020	22.225	97.616	604.600	293.469	2.203	79.270	77.971	10.098	14.208	54591.878	43.329
407.219	22.186	97.723	604.068	293.893	2.219	79.182	77.836	9.978	14.208	54596.284	43.115
407.420	22.187	97.823	603.728	293.607	2.215	79.136	77.746	9.996	14.117	54629.330	43.444
407.620	22.233	97.892	602.924	293.168	2.204	78.996	77.668	10.082	13.982	54629.427	42.951
407.822	22.177	98.121	602.927	293.425	2.204	79.070	77.743	10.106	13.981	54646.204	43.801
408.021	22.163	98.178	601.949	293.853	2.183	79.110	77.793	10.122	13.981	54645.282	43.658
408.221	22.165	98.320	602.505	293.126	2.198	78.981	77.700	10.017	13.981	54645.080	43.263
408.423	22.268	98.372	601.736	292.524	2.199	78.984	77.772	9.896	13.982	54660.006	43.877
408.623	22.252	98.454	601.839	293.349	2.202	79.000	77.674	9.941	14.284	54658.284	43.208
408.823	22.095	98.575	601.457	293.164	2.194	79.060	77.726	10.075	14.283	54657.548	43.779
409.023	22.225	98.677	601.549	292.748	2.197	78.953	77.576	9.953	14.355	54662.674	44.086
409.224	22.205	98.649	600.729	292.856	2.192	78.928	77.575	9.952	14.548	54659.198	43.088
409.424	22.144	98.917	600.733	293.742	2.192	78.777	77.494	10.015	14.548	54655.430	43.428
409.624	22.099	98.974	600.391	292.885	2.192	78.740	77.446	10.061	14.616	54656.319	43.877
409.826	22.124	98.914	599.254	293.091	2.185	78.549	77.284	9.832	14.625	54654.864	42.660
410.026	22.080	99.193	598.867	292.395	2.186	78.648	77.268	10.070	14.624	54649.269	43.779
410.226	22.061	99.198	598.179	292.556	2.175	78.501	77.180	9.938	14.359	54645.857	43.000
410.427	22.163	99.309	597.962	292.142	2.161	78.599	77.383	10.008	14.359	54636.202	43.960
410.628	22.074	99.387	597.269	293.077	2.161	79.403	78.046	10.325	14.392	54626.249	43.038
410.827	22.170	99.467	596.935	292.185	2.155	80.076	78.821	10.580	14.625	54631.691	44.201
411.028	22.202	99.574	597.312	292.484	2.182	81.073	79.815	10.753	14.625	54649.827	44.777
411.228	22.149	99.598	597.734	292.821	2.213	82.134	80.880	10.714	14.739	54644.199	44.393
411.429	22.094	99.759	598.569	293.303	2.242	83.126	81.823	10.845	14.776	54695.987	45.347
411.630	22.190	99.668	600.215	292.235	2.262	83.743	82.444	11.044	14.776	54795.997	44.706
411.830	22.120	99.966	601.558	292.721	2.297	83.984	82.571	10.696	15.191	54795.584	45.490
412.031	22.205	99.996	602.980	292.777	2.300	84.212	82.810	10.754	15.191	55043.301	46.521
412.231	22.143	100.126	603.534	292.969	2.306	84.438	83.111	10.719	15.192	55043.106	44.771
412.432	22.232	100.051	604.689	293.474	2.309	84.690	83.286	10.864	15.457	55046.349	45.566
412.632	22.185	100.321	604.274	293.839	2.341	84.787	83.430	10.807	15.457	55298.682	45.446
412.832	22.082	100.234	605.165	294.075	2.330	84.949	83.555	10.800	15.316	55295.488	45.166
413.032	22.161	100.446	605.784	293.523	2.325	85.010	83.670	10.744	15.192	55451.425	46.384
413.232	22.168	100.416	606.197	293.688	2.349	85.042	83.727	10.854	15.192	55521.632	45.462
413.433	22.102	100.909	606.247	293.596	2.342	85.170	83.899	10.810	15.491	55522.594	46.109
413.632	22.181	100.750	606.077	293.933	2.357	85.254	83.850	10.739	15.495	55714.868	45.243
413.833	22.149	100.995	606.602	294.383	2.359	85.362	84.030	10.803	15.495	55718.102	46.400
414.033	22.168	101.095	607.193	294.270	2.362	85.392	84.026	10.690	15.040	55751.293	46.104
414.234	22.212	101.182	606.701	294.372	2.362	85.398	84.009	10.899	15.041	55878.018	45.583
414.434	22.098	101.536	608.082	294.218	2.363	85.367	83.975	10.832	14.923	55876.821	46.296
414.634	22.131	101.539	608.174	294.680	2.378	85.420	84.025	10.792	14.624	55995.048	45.194
414.835	22.252	101.481	608.705	293.965	2.376	85.339	83.964	10.902	14.625	56005.357	46.082
415.035	22.181	101.615	608.619	294.801	2.363	85.258	83.912	10.676	14.321	56000.311	45.298
415.236	22.130	101.622	608.807	294.568	2.369	85.190	83.908	10.740	14.284	56092.947	45.342
415.436	22.139	101.998	609.682	295.050	2.372	85.192	83.771	10.886	14.283	56097.063	46.367
415.636	22.164	102.149	609.037	295.355	2.374	85.186	83.862	10.885	14.435	56133.747	46.427
415.836	22.219	102.081	608.934	295.422	2.377	85.125	83.795	10.715	14.435	56162.200	45.172
416.036	22.180	102.287	609.338	295.605	2.372	85.051	83.696	10.748	14.451	56161.909	45.468
416.236	22.159	102.451	609.130	295.420	2.372	85.148	83.735	10.829	14.662	56201.600	45.007
416.436	22.196	102.403	609.069	295.598	2.379	85.053	83.674	10.643	14.662	56201.180	44.881
416.638	22.113	102.461	608.975	295.956	2.377	84.985	83.669	10.796	14.690	56205.069	45.446
416.837	22.140	102.619	609.612	296.021	2.379	84.953	83.679	10.765	14.700	56224.862	45.292
417.038	22.166	102.880	609.729	295.649	2.377	84.889	83.591	10.758	14.700	56228.452	45.040
417.238	22.234	102.824	609.853	295.950	2.395	84.927	83.564	10.623	14.512	56241.130	45.424
417.438	22.060	103.029	610.502	295.919	2.376	84.875	83.509	10.716	14.511	56237.524	46.011
417.639	22.229	103.054	610.956	295.351	2.384	84.791	83.554	10.624	14.511	56243.217	46.488
417.840	22.104	103.267	611.312	295.970	2.379	84.828	83.437	10.737	14.737	56244.454	45.956
418.041	22.175	103.227	611.887	296.098	2.373	84.835	83.463	10.720	14.738	56247.995	46.822
418.241	22.177	103.397	612.036	296.222	2.383	84.673	83.294	10.690	14.795	56246.928	45.506
418.441	22.139	103.316	611.525	296.359	2.386	84.699	83.264	10.785	14.888	56245.909	46.230
418.641	22.194	103.305	611.655	296.456	2.377	84.612	83.274	10.689	14.889	56242.917	45.226
418.843	22.157	103.405	612.039	296.277	2.379	84.617	83.182	10.561	14.999	56231.129	45.391
419.042	22.102	103.559	611.888	296.751	2.363	84.610	83.218	10.591	15.002	56229.633	45.117
419.243	22.182	103.625	611.535	296.852	2.362	84.630	83.267	10.579	15.003	56232.641	45.188
419.443	22.155	103.690	611.595	297.207	2.381	84.560	83.187	10.513	14.663	56221.248	46.345
419.643	22.181	103.754	612.264	296.916	2.374	84.594	83.236	10.677	14.662	56221.119	45.775
419.843	22.162	103.829	611.991	296.474	2.366	84.518	83.137	10.551	14.632	56208.780	44.788
420.043	22.057	104.003	613.056	297.226	2.368	84.605	83.184	10.742	14.510	56203.864	45.638
420.243	22.171	103.906	612.693	297.585	2.375	84.481	83.209	10.437	14.512	56208.028	45.599
420.444	22.159	104.033	613.545	296.773	2.392	84.481	83.104	10.606	14.687	56196.660	44.919
420.643	22.105	104.148	613.427	297.238	2.379	84.575	83.137	10.527	14.699	56196.644	45.824
420.843	22.130	104.099	613.526	296.955	2.357	85.004	83.707	10.741	14.700	56192.585	45.035
421.043	22.099	104.369	613.426	297.502	2.365	85.438	84.005	10.830	14.738	56185.179	45.435
421.243	22.103	104.419	614.162	297.641	2.339	85.908	84.636	10.979	14.737	56185.251	45.972
421.445	22.116	104.400	614.818	297.667	2.368	86.624	85.290	10.938	14.738	56227.555	46.241
421.645	22.119	104.464	614.837	297.835	2.371	87.402	86.042	11.135	14.889	56228.897	46.318
421.845	22.171	104.533	615.623	297.628	2.393	88.017	86.660	11.356	14.888	56234.177	47.760
422.046	22.075	104.603	615.739	298.345	2.428	88.098	86.747	11.170	15.057	56369.335	46.932
422.245	22.136	104.873	616.334	298.337	2.428	88.467	87.154	11.284	15.191	56373.086	47.376
422.445	22.184	104.888	616.687	298.397	2.438	88.657	87.312	11.228	15.192	56486.761	47.261
422.646	22.097	105.083	617.273	298.243	2.459	88.812	87.539	11.079	15.078	56568.020	47.667
422.845	22.168	104.951	616.923	298.844	2.458	89.064	87.755	11.098	15.078	56568.853	47.014
423.046	22.143	105.098	617.228	299.039	2.458	89.246	87.888	11.246	15.078	56756.122	46.647
423.247	22.119	105.410	617.953	299.032	2.479	89.416	88.025	11.223	15.116	56757.076	47.727
423.448	22.146	105.267	617.511	299.215	2.469	89.487	88.165	11.312	15.116	56782.367	46.970
423.648	22.099	105.559	617.903	299.078	2.478	89.561	88.261	11.200	15.058	56930.713	47.744
423.849	22.107	105.699	618.938	300.126	2.500	89.761	88.421	11.186	14.965	56930.244	47.831
424.049	22.116	105.865	619.158	299.845	2.485	89.730	88.327	11.144	14.964	57073.891	47.393
424.251	22.147	105.992	619.046	299.838	2.488	89.875	88.457	11.194	15.000	57087.305	48.056
424.451	22.269	106.035	619.583	299.545	2.499	89.915	88.595	11.224	15.002	57091.396	48.275
424.651	22.193	106.179	620.193	300.062	2.508	89.988	88.612	11.239	15.002	57221.864	48.248
424.851	22.097	106.243	620.067	300.419	2.509	90.081	88.792	11.223	14.813	57219.843	48.051
425.051	22.097	106.319	620.817	300.099	2.517	90.075	88.680	11.217	14.813	57268.445	47.754
425.252	22.172	106.453	621.439	299.951	2.507	90.134	88.749	11.192	14.865	57330.720	47.842
425.452	22.154	106.538	621.145	300.213	2.516	90.084	88.684	11.236	15.153	57329.474	48.023
425.653	22.083	106.776	621.830	300.209	2.506	90.221	88.797	11.237	15.153	57414.356	48.254
425.852	22.065	106.741	621.792	301.130	2.502	90.270	88.898	11.264	14.958	57411.259	47.151
426.054	22.183	106.820	621.088	301.190	2.509	90.168	88.841	11.209	14.927	57420.445	47.705
426.253	22.136	107.022	623.047	300.341	2.510	90.148	88.790	11.244	14.927	57490.748	48.051
426.454	22.210	107.061	622.996	300.521	2.511	90.193	88.805	11.334	14.965	57491.613	47.941
426.655	22.205	107.155	623.355	300.470	2.504	90.135	88.761	11.270	14.965	57537.547	47.393
426.855	22.168	107.280	622.754	300.609	2.497	90.101	88.747	11.305	14.966	57545.285	47.223
427.057	22.139	107.414	622.732	301.826	2.507	90.137	88.719	11.367	15.040	57544.412	47.195
427.257	22.183	107.528	623.109	301.192	2.510	90.101	88.809	11.419	15.040	57587.589	47.837
427.459	22.168	107.589	623.397	300.958	2.519	90.097	88.706	11.305	15.040	57583.287	47.042
427.658	22.134	107.766	623.797	301.343	2.517	90.052	88.679	11.340	15.040	57594.057	47.552
427.860	22.177	107.755	623.013	301.544	2.513	89.973	88.583	11.317	15.040	57614.319	47.453
428.059	22.175	107.888	623.421	301.296	2.498	90.018	88.644	11.285	14.927	57608.870	46.970
428.261	22.088	108.081	623.430	301.825	2.502	90.091	88.833	11.170	14.926	57624.871	47.398
428.461	22.239	108.063	623.918	301.739	2.522	90.019	88.660	11.209	14.927	57625.510	47.107
428.660	22.167	108.089	623.932	302.173	2.510	90.184	88.886	11.198	15.002	57626.278	46.652
428.860	22.121	108.304	624.396	301.448	2.498	90.172	88.875	11.173	15.002	57643.047	47.935
429.060	22.230	108.359	624.466	301.964	2.499	90.137	88.829	11.214	15.376	57645.198	47.705
429.260	22.199	108.316	625.190	301.919	2.501	90.244	88.949	11.147	15.835	57652.669	46.784
429.460	22.241	108.591	625.699	301.768	2.513	90.161	88.741	11.220	15.835	57664.029	47.831
429.660	22.230	108.528	626.504	302.437	2.509	90.219	88.883	11.193	15.243	57660.391	46.976
429.860	22.211	108.757	627.012	302.814	2.501	90.328	88.972	11.297	15.230	57682.658	48.078
430.060	22.153	108.705	627.585	302.270	2.504	90.201	88.838	11.199	15.230	57675.211	46.959
430.262	22.235	108.766	627.762	302.142	2.520	90.242	88.870	11.266	15.154	57682.092	46.833
430.462	22.270	108.860	628.706	302.449	2.505	90.337	89.019	11.254	15.154	57698.360	47.053
430.662	22.136	108.982	628.499	302.345	2.513	90.346	89.026	11.353	15.085	57695.514	47.574
430.862	22.252	109.001	629.237	302.528	2.492	90.373	88.872	11.261	14.889	57714.208	47.700
431.064	22.262	109.061	628.839	302.396	2.512	90.303	88.986	11.308	14.889	57712.211	47.201
431.264	22.179	109.194	628.732	302.827	2.501	90.376	89.012	11.224	14.725	57713.739	47.716
431.464	22.134	109.307	629.556	302.694	2.501	90.169	88.740	11.296	14.700	57724.048	47.157
431.666	22.179	109.435	629.598	302.942	2.501	90.175	88.844	11.142	14.700	57728.366	47.946
431.866	22.266	109.530	628.698	303.098	2.501	90.071	88.697	11.181	14.889	57731.002	47.623
432.065	22.221	109.504	628.754	302.681	2.496	90.109	88.753	11.355	14.889	57730.144	46.806
432.266	22.239	109.481	628.027	302.689	2.491	90.352	88.950	11.370	14.909	57730.581	47.272
432.467	22.230	109.635	627.484	302.174	2.491	90.807	89.466	11.314	15.041	57732.408	47.524
432.668	22.168	109.680	627.633	302.373	2.520	91.111	89.834	11.466	15.040	57728.932	47.261
432.869	22.190	109.865	628.127	302.439	2.513	91.590	90.183	11.419	15.067	57739.443	48.226
433.070	22.174	109.825	628.895	302.962	2.532	92.181	90.711	11.565	15.078	57771.858	47.903
433.269	22.248	109.949	629.570	303.354	2.545	92.861	91.524	11.892	15.078	57776.014	48.528
433.470	22.309	110.024	629.748	302.873	2.550	93.945	92.668	12.065	15.343	57871.965	49.016
433.671	22.270	110.103	630.470	302.643	2.566	95.006	93.685	12.030	15.343	57879.048	49.948
433.870	22.319	110.093	631.359	302.718	2.603	96.106	94.665	12.235	15.343	57880.438	49.860
434.071	22.251	110.185	632.539	303.441	2.620	96.894	95.515	12.214	15.835	58089.692	49.350
434.271	22.259	110.476	633.901	303.631	2.658	97.844	96.439	12.471	15.835	58089.085	50.047
434.471	22.300	110.427	634.797	303.656	2.674	98.846	97.499	12.526	16.018	58237.349	50.332
434.671	22.282	110.553	636.382	303.785	2.721	99.864	98.537	12.577	16.251	58392.422	49.613
434.872	22.243	110.822	637.236	304.222	2.744	100.992	99.622	12.765	16.251	58394.435	50.699
435.072	22.166	110.666	638.964	304.766	2.802	101.943	100.621	13.102	15.992	58771.447	50.880
435.272	22.282	110.900	640.350	304.791	2.839	103.063	101.774	13.120	15.987	58771.123	51.385
435.474	22.316	111.033	641.460	305.198	2.852	104.149	102.591	13.244	15.987	58798.881	51.226
435.673	22.251	111.204	642.874	305.533	2.867	105.081	103.601	13.397	15.949	59194.279	50.502
435.874	22.327	111.326	643.939	305.412	2.933	105.792	104.399	13.544	15.949	59201.467	51.226
436.074	22.246	111.459	645.197	306.404	2.942	106.750	105.267	13.583	15.964	59562.252	50.568
436.275	22.272	111.583	645.800	305.849	2.947	107.824	106.218	13.913	16.025	59653.424	52.163
436.476	22.286	111.718	646.968	306.231	2.990	108.844	107.328	14.049	16.025	59653.416	51.719
436.676	22.185	111.812	646.712	306.794	3.005	110.161	108.639	14.130	16.292	60111.493	50.952
436.878	22.278	111.972	647.131	306.460	3.060	111.472	109.884	14.345	16.365	60119.360	52.158
437.078	22.281	112.286	647.491	307.255	3.071	112.428	110.886	14.530	16.365	60307.794	52.070
437.279	22.239	112.594	647.803	307.319	3.127	113.565	112.078	14.739	16.478	60625.393	53.227
437.479	22.275	112.720	648.007	307.660	3.162	114.416	112.910	14.885	16.479	60625.045	52.624
437.679	22.180	113.017	648.392	307.940	3.191	115.426	113.840	14.729	16.479	61162.005	53.732
437.879	22.217	113.220	649.227	308.226	3.214	116.028	114.488	15.058	16.479	61161.132	52.931
438.079	22.243	113.386	648.953	308.583	3.259	116.946	115.213	15.011	16.479	61162.045	53.249
438.280	22.109	113.814	649.796	308.462	3.252	117.297	115.647	15.186	16.720	61695.787	54.225
438.479	22.235	114.188	650.162	308.223	3.266	117.921	116.280	14.985	16.971	61699.231	54.192
438.679	22.208	114.112	649.865	309.412	3.279	118.755	117.020	15.171	16.971	62040.141	53.792
438.881	22.075	114.511	650.268	309.573	3.304	119.199	117.377	15.290	16.635	62194.615	54.390
439.080	22.103	114.337	650.479	309.627	3.329	119.654	117.839	15.301	16.630	62193.580	54.121
439.280	22.090	115.289	649.971	309.573	3.340	120.247	118.497	15.353	16.630	62645.763	55.229
439.482	22.184	115.191	650.196	309.843	3.367	120.675	118.794	15.302	16.441	62647.704	54.401
439.682	22.065	115.497	650.450	310.132	3.380	120.898	119.063	15.309	16.440	62750.164	55.207
439.884	22.026	115.407	650.175	310.044	3.424	121.319	119.390	15.554	16.527	63049.425	54.516
440.083	22.052	115.655	649.957	310.581	3.386	121.348	119.489	15.426	16.932	63050.331	54.489
440.285	22.059	116.157	649.837	310.534	3.380	121.471	119.663	15.347	16.933	63391.014	54.593
440.485	22.051	116.392	649.637	310.712	3.395	121.489	119.616	15.363	16.961	63397.095	54.225
440.685	21.974	116.624	649.331	310.460	3.407	121.585	119.703	15.301	16.970	63397.087	55.048
440.886	22.122	117.036	648.746	310.753	3.404	121.582	119.656	15.347	16.971	63685.618	55.158
441.085	22.105	117.098	648.917	311.120	3.411	121.687	119.772	15.461	17.122	63685.061	54.850
441.285	22.099	117.447	648.201	310.951	3.368	121.763	119.910	15.409	17.122	63806.796	54.308
441.485	22.110	117.670	648.082	310.413	3.400	121.806	119.850	15.362	17.122	63905.294	54.609
441.685	22.001	117.903	647.616	311.406	3.401	121.835	119.876	15.430	17.160	63902.189	54.708
441.885	21.975	117.894	647.250	311.219	3.415	121.919	119.954	15.196	17.160	64075.810	55.432
442.086	22.019	118.084	646.604	311.265	3.437	121.968	119.974	15.293	16.997	64074.330	54.604
442.286	21.985	118.563	647.263	311.730	3.440	121.929	119.954	15.454	16.819	64094.188	55.432
442.486	22.102	118.611	646.710	311.016	3.431	121.826	119.895	15.361	16.819	64213.846	55.525
442.686	22.026	118.781	646.495	311.915	3.441	121.677	119.753	15.300	16.264	64210.919	54.576
442.887	22.000	119.087	645.187	311.153	3.421	121.535	119.709	15.502	16.251	64296.609	55.711
443.087	22.104	119.220	644.941	311.045	3.407	121.534	119.693	15.193	16.252	64310.500	55.415
443.287	21.997	119.630	644.685	311.808	3.413	121.458	119.574	15.268	16.402	64308.398	55.180
443.488	22.045	119.562	643.406	311.715	3.391	121.589	119.623	15.279	16.403	64373.147	55.130
443.687	21.967	119.742	643.396	311.929	3.389	121.407	119.541	15.080	16.449	64376.090	55.657
443.888	22.094	119.922	642.054	311.761	3.372	121.480	119.667	15.312	16.555	64399.870	55.245
444.088	22.007	120.208	642.238	311.539	3.399	121.541	119.657	15.280	16.554	64422.832	54.500
444.289	22.016	120.472	642.652	311.973	3.404	121.532	119.664	15.306	16.368	64428.727	55.624
444.489	22.014	120.624	641.357	311.892	3.404	121.601	119.734	15.209	16.327	64463.042	54.659
444.690	22.001	120.543	642.140	312.143	3.402	121.473	119.596	15.299	16.327	64465.144	54.593
444.890	22.108	120.842	641.275	312.537	3.403	121.517	119.579	15.275	16.668	64471.426	55.020
445.089	21.996	121.118	641.938	312.155	3.420	121.469	119.607	15.216	16.667	64495.327	55.794
445.290	21.978	121.326	641.783	312.761	3.444	121.578	119.621	15.205	16.668	64493.168	54.878
445.490	22.030	121.474	641.598	312.450	3.434	121.514	119.617	15.230	16.441	64508.951	54.883
445.690	21.931	121.387	642.048	312.364	3.433	121.494	119.487	15.330	16.441	64509.841	54.856
445.890	22.116	121.728	642.004	312.571	3.435	121.464	119.517	15.297	16.487	64516.665	55.503
446.091	22.022	121.675	641.319	312.466	3.451	121.322	119.333	15.299	16.517	64524.160	54.785
446.290	21.940	122.067	641.157	312.641	3.455	121.276	119.431	15.464	16.517	64522.503	55.443
446.491	21.984	122.017	641.190	312.543	3.431	121.363	119.460	15.141	16.591	64525.672	56.375
446.691	21.946	122.319	641.566	312.998	3.435	121.136	119.339	15.299	16.592	64517.951	55.245
446.891	21.901	122.460	641.382	313.402	3.421	121.193	119.223	15.402	16.592	64518.848	55.640
447.091	22.053	122.364	640.888	312.427	3.431	121.110	119.276	15.198	16.668	64515.678	55.278
447.293	22.022	122.767	641.065	312.772	3.409	120.961	119.140	15.260	16.667	64515.953	55.525
447.494	22.028	122.443	640.364	312.706	3.416	121.102	119.079	15.309	16.698	64511.086	54.560
447.694	22.011	122.828	640.866	312.354	3.384	121.045	119.183	15.064	16.819	64501.585	54.807
447.894	21.978	123.033	640.575	312.827	3.409	120.999	119.091	14.885	16.819	64506.865	55.931
448.096	22.108	123.017	640.859	312.617	3.393	121.020	119.131	14.974	16.613	64501.351	54.840
448.296	21.998	123.516	640.713	313.416	3.407	120.861	118.952	15.233	16.554	64495.295	55.136
448.497	22.075	123.643	640.895	313.011	3.388	120.865	118.953	15.139	16.554	64495.554	55.783
448.697	21.977	123.638	641.275	313.737	3.388	121.659	119.844	15.328	16.440	64484.622	55.711
448.897	22.103	123.720	641.356	313.295	3.384	123.112	121.163	15.628	16.441	64488.091	56.600
449.097	22.081	123.849	641.606	312.565	3.401	124.703	122.942	15.846	16.442	64494.042	56.271
449.297	21.995	123.970	642.534	313.472	3.428	127.166	125.410	16.095	16.554	64537.113	57.411
449.498	22.105	124.067	643.833	314.042	3.513	129.610	127.775	16.649	16.555	64544.277	58.760
449.698	22.008	124.301	646.540	314.210	3.588	131.923	130.030	16.990	16.796	64789.754	59.495
449.899	22.179	124.441	648.499	314.926	3.669	133.540	131.772	17.014	17.161	64802.917	60.274
450.099	22.257	124.621	651.324	314.340	3.750	134.809	132.954	17.519	17.161	64802.262	60.554
450.300	22.161	124.795	654.513	314.981	3.799	135.705	133.721	17.547	17.646	65273.179	61.014
450.500	22.080	125.117	656.918	314.968	3.829	136.455	134.502	17.685	17.653	65271.513	61.513
450.702	22.016	125.337	660.344	315.168	3.852	137.051	135.088	17.671	17.652	65567.379	61.930
450.902	22.042	125.549	662.939	315.159	3.856	137.534	135.650	17.886	17.994	65778.621	61.952
451.103	22.119	125.632	665.553	315.995	3.875	137.935	136.035	17.676	17.994	65778.678	61.628
451.302	22.024	126.113	668.221	315.284	3.902	138.339	136.305	17.810	17.989	66230.440	61.919
451.502	22.163	126.221	669.515	315.542	3.889	138.580	136.587	17.952	17.918	66235.235	62.259
451.703	22.047	126.409	672.480	315.946	3.915	138.787	136.840	17.939	17.918	66268.079	61.809
451.904	22.158	126.775	675.001	315.687	3.938	139.047	136.937	17.965	17.982	66623.065	62.446
452.103	22.158	126.911	676.681	315.292	3.939	139.191	137.084	18.017	18.032	66623.995	62.566
452.304	22.017	127.321	679.924	315.509	3.933	139.276	137.229	17.970	18.032	66904.676	62.912
452.506	22.022	127.438	681.781	316.010	3.935	139.385	137.361	18.066	18.069	66943.382	61.771
452.706	21.973	127.887	684.028	316.138	3.956	139.452	137.408	18.104	18.069	66944.627	62.769
452.907	22.004	128.124	686.158	316.191	3.953	139.560	137.409	18.092	18.069	67207.762	63.142
453.107	22.013	128.352	688.567	316.002	3.934	139.459	137.437	18.254	17.842	67205.336	62.122
453.308	21.921	128.644	688.832	315.398	3.940	139.713	137.562	18.064	17.842	67290.340	62.149
453.508	22.071	128.837	691.542	315.596	3.953	139.589	137.548	18.223	17.867	67407.507	63.328
453.709	22.007	129.248	692.937	316.272	3.980	139.478	137.338	18.237	17.918	67406.812	63.614
453.910	21.994	129.465	693.990	315.964	3.950	139.431	137.302	18.105	17.918	67557.906	63.586
454.111	21.944	129.668	695.785	315.640	3.949	139.321	137.321	18.091	17.814	67556.612	63.224
454.312	21.941	129.867	697.035	315.959	3.938	139.351	137.399	18.059	17.805	67563.291	63.493
454.512	21.977	129.976	697.723	316.308	3.935	139.365	137.381	18.040	17.805	67663.802	62.572
454.712	21.900	130.400	700.174	316.367	3.937	139.461	137.352	18.099	17.918	67664.724	62.895
454.913	22.042	130.402	701.336	315.903	3.907	139.349	137.342	17.786	17.919	67731.712	62.325
455.112	22.040	130.721	702.475	316.025	3.911	139.199	137.099	18.127	17.918	67754.182	63.378
455.312	22.009	130.849	704.219	316.072	3.940	139.303	137.236	18.075	17.653	67754.869	63.455
455.512	21.907	130.994	704.342	316.463	3.910	139.104	137.048	18.085	17.653	67812.778	62.374
455.713	21.865	131.323	704.926	316.397	3.913	139.226	137.124	18.137	17.719	67814.298	63.082
455.912	21.924	131.524	705.881	315.894	3.902	139.211	137.153	17.993	17.804	67831.156	63.241
456.113	21.901	131.520	706.370	316.192	3.906	139.201	137.222	17.689	17.805	67858.315	63.010
456.313	21.972	131.888	707.130	316.171	3.920	139.065	137.006	18.189	17.732	67861.590	62.775
456.513	21.992	132.099	708.342	316.465	3.934	138.921	136.981	18.144	17.729	67898.808	63.301
456.714	21.860	132.289	709.069	316.745	3.902	139.072	137.038	17.882	17.729	67894.571	63.142
456.915	21.952	132.365	709.900	316.663	3.936	139.127	137.100	18.228	17.767	67895.388	62.478
457.114	21.829	132.612	711.762	317.085	3.931	139.128	137.043	18.165	17.766	67923.946	62.742
457.315	21.891	132.821	712.670	316.911	3.952	138.958	137.028	18.063	17.756	67921.334	62.670
457.515	21.920	132.957	713.079	317.092	3.957	139.170	137.101	18.182	17.653	67937.117	63.219
457.715	21.889	133.223	714.240	317.393	3.948	139.168	137.134	17.919	17.652	67939.769	62.402
457.916	21.901	133.252	715.232	317.137	3.954	139.166	137.104	18.000	17.587	67939.114	62.149
458.115	21.957	133.364	715.834	317.559	3.934	138.959	136.900	18.029	17.540	67951.687	62.155
458.316	21.932	133.745	716.746	316.865	3.944	138.980	136.994	18.102	17.539	67955.641	62.917
458.516	21.969	133.744	717.233	317.591	3.941	138.967	136.928	18.058	17.803	67957.929	62.407
458.718	21.848	133.879	716.977	317.799	3.928	138.943	136.952	17.977	17.805	67957.889	62.736
458.917	21.868	134.114	717.727	317.952	3.946	138.989	137.032	17.909	17.803	67961.212	63.674
459.117	21.865	134.116	718.531	317.725	3.960	138.789	136.808	17.787	17.729	67953.684	62.303
459.318	21.853	134.332	719.396	317.355	3.954	138.831	136.855	18.037	17.729	67954.218	62.692
459.519	21.906	134.521	720.186	317.914	3.929	138.751	136.740	17.977	17.686	67960.840	62.999
459.718	21.895	134.532	721.111	317.385	3.958	138.713	136.780	17.888	17.539	67957.056	62.204
459.919	21.945	134.856	721.434	318.093	3.938	138.812	136.822	17.866	17.540	67960.807	63.120
460.118	21.929	134.864	722.143	317.603	3.964	138.851	136.785	18.160	17.567	67956.983	62.462
460.319	21.903	135.211	722.446	318.578	3.934	138.856	136.877	17.866	17.577	67955.673	63.345
460.519	21.974	135.189	723.167	318.396	3.930	138.732	136.746	17.894	17.577	67957.961	62.923
460.718	21.849	135.403	724.168	318.359	3.922	138.872	136.804	17.849	17.690	67953.094	62.764
460.918	21.941	135.435	724.634	318.817	3.954	138.692	136.753	17.826	17.690	67951.857	62.012
461.119	21.859	135.510	725.031	318.444	3.936	138.561	136.596	18.028	17.691	67954.315	62.073
461.320	21.917	135.688	724.971	318.817	3.960	138.453	136.508	17.723	17.690	67951.291	62.171
461.520	21.976	135.877	724.374	318.949	3.960	138.528	136.601	17.792	17.691	67955.107	62.659
461.720	21.867	136.051	725.048	318.171	3.920	138.302	136.331	17.934	17.690	67942.906	63.109
461.920	21.907	136.141	724.655	319.036	3.920	138.446	136.462	17.842	17.691	67941.313	63.054
462.120	21.896	136.085	724.189	319.225	3.900	138.625	136.651	17.943	17.691	67939.923	62.111
462.321	21.855	136.355	724.385	319.684	3.929	138.573	136.503	17.771	17.661	67932.953	63.076
462.520	21.893	136.443	724.480	319.476	3.931	138.445	136.520	18.164	17.653	67933.551	62.605
462.722	21.884	136.511	724.392	319.865	3.921	138.519	136.552	17.857	17.653	67930.422	61.634
462.921	21.864	136.577	723.988	319.177	3.941	138.301	136.409	17.870	17.615	67927.164	62.144
463.121	21.855	136.656	723.715	319.851	3.927	138.246	136.227	17.955	17.615	67929.331	61.864
463.321	21.801	136.990	722.688	319.932	3.894	138.467	136.467	17.729	17.615	67922.345	63.597
463.523	21.939	137.060	722.677	320.274	3.922	138.396	136.375	17.735	17.426	67925.918	63.339
463.722	21.918	136.944	723.279	319.858	3.926	138.579	136.535	17.818	17.426	67922.345	62.413
463.922	21.907	137.243	722.769	319.807	3.928	138.409	136.383	17.904	17.426	67921.391	63.060
464.122	21.899	137.370	722.645	320.530	3.936	138.438	136.432	18.003	17.425	67920.210	62.923
464.322	21.849	137.427	722.261	320.453	3.904	138.278	136.310	18.047	17.425	67913.345	62.380
464.522	21.997	137.461	722.635	320.289	3.915	138.273	136.358	17.844	17.458	67916.151	62.857
464.722	21.873	137.534	722.327	320.732	3.901	138.251	136.320	17.998	17.462	67912.205	62.100
464.922	22.010	137.728	722.347	320.671	3.899	138.366	136.356	17.844	17.463	67911.575	62.813
465.122	21.873	137.832	722.306	320.440	3.903	138.424	136.415	17.803	17.500	67908.971	63.252
465.322	21.839	137.891	722.874	321.071	3.920	138.322	136.425	17.869	17.501	67905.818	62.637
465.523	21.933	137.893	722.726	320.666	3.937	138.537	136.513	17.804	17.502	67906.319	62.572
465.722	21.904	138.177	723.274	321.205	3.940	138.316	136.264	17.946	17.501	67902.196	62.829
465.923	22.022	138.125	723.619	320.213	3.917	138.283	136.324	17.755	17.501	67906.643	62.550
466.122	21.858	138.301	723.355	320.746	3.927	138.320	136.307	17.883	17.544	67903.020	62.489
466.324	21.962	138.354	723.950	320.667	3.926	138.233	136.220	17.878	17.615	67906.602	63.356
466.524	21.949	138.408	723.672	321.451	3.938	137.884	135.918	17.931	17.615	67896.673	61.925
466.725	21.851	138.509	724.138	321.220	3.869	138.990	137.047	17.920	17.685	67896.746	62.857
466.924	21.858	138.691	724.059	320.955	3.862	142.294	140.372	18.850	17.690	67903.902	64.666
467.124	21.888	138.677	724.540	320.826	3.919	146.475	144.562	19.436	17.690	67903.239	64.431
467.324	21.944	138.700	726.151	321.511	4.092	152.587	150.698	20.189	18.372	67906.311	65.834
467.526	21.883	138.843	729.724	321.227	4.261	158.142	156.210	21.159	18.372	68204.942	68.253
467.725	21.846	139.113	732.732	322.305	4.450	162.681	160.763	21.682	18.372	68203.866	70.655
467.925	21.942	139.399	736.125	322.750	4.617	166.331	164.217	22.500	19.886	68278.059	72.569
468.125	21.868	139.644	740.121	324.148	4.754	169.361	167.236	22.936	19.886	68977.368	73.835
468.325	21.929	139.927	743.446	324.360	4.870	172.494	170.160	23.344	19.922	68982.082	75.799
468.525	21.894	140.176	746.799	325.031	4.975	174.608	172.321	23.921	22.195	69791.241	74.800
468.725	21.947	140.517	749.302	325.950	5.069	176.676	174.410	24.044	22.197	69960.600	76.352
468.926	21.962	140.884	750.731	326.336	5.164	177.722	175.393	23.928	22.205	69964.465	77.663
469.128	21.904	141.307	752.881	326.673	5.222	178.920	176.560	24.306	22.385	70940.291	77.438
469.328	21.859	141.802	754.318	327.399	5.257	179.840	177.452	23.898	22.386	70941.536	78.628
469.528	21.819	142.218	755.181	326.985	5.315	180.555	178.158	24.314	22.386	71292.464	79.999
469.728	21.904	142.518	756.749	327.870	5.317	181.472	178.978	24.135	22.385	71809.170	78.891
469.929	21.932	143.005	757.765	328.548	5.330	181.939	179.507	24.477	22.386	71812.841	80.098
470.131	21.705	143.405	759.444	328.963	5.371	182.368	179.882	24.106	22.483	72535.210	80.652
470.330	21.816	143.848	761.016	329.348	5.387	182.835	180.301	24.605	22.500	72543.344	80.547
470.531	21.683	144.170	762.424	329.803	5.417	183.165	180.583	24.249	22.500	72544.136	80.427
470.732	21.731	144.635	763.939	330.367	5.392	183.379	180.759	24.505	22.688	73130.458	80.838
470.931	21.824	144.938	765.240	330.488	5.427	183.693	181.161	24.760	22.689	73129.447	80.449
471.131	21.767	145.308	766.412	331.542	5.431	184.017	181.493	24.614	22.689	73479.623	80.953
471.331	21.632	145.822	768.380	331.744	5.404	184.268	181.818	24.453	22.727	73609.776	81.573
471.531	21.730	146.174	769.378	331.942	5.455	184.448	181.955	24.762	22.728	73609.711	81.907
471.731	21.760	146.643	771.473	332.111	5.433	185.011	182.355	24.553	22.727	73996.838	82.763
471.932	21.754	146.971	772.736	332.272	5.446	185.142	182.535	24.831	22.614	73997.461	81.737
472.134	21.671	147.292	773.812	332.919	5.468	185.253	182.768	24.885	22.614	74078.939	81.617
472.334	21.622	147.829	774.622	333.157	5.474	185.507	182.995	24.698	22.714	74309.433	82.522
472.534	21.577	148.164	776.570	333.557	5.495	185.656	183.171	24.941	22.878	74305.398	82.478
472.734	21.597	148.532	777.601	333.769	5.517	185.845	183.329	24.963	22.879	74569.091	82.867
472.934	21.686	148.728	779.652	334.570	5.499	185.841	183.233	25.006	22.851	74570.126	81.875
473.134	21.577	149.291	781.001	334.173	5.494	186.356	183.787	25.160	22.802	74570.676	83.322
473.335	21.657	149.566	782.911	334.557	5.526	186.502	184.065	25.188	22.803	74782.347	83.591
473.536	21.599	149.900	783.991	334.979	5.547	186.876	184.410	25.244	22.830	74782.557	83.426
473.737	21.583	150.264	785.538	335.034	5.541	186.983	184.356	25.161	22.840	74896.199	83.821
473.937	21.524	150.694	787.360	335.715	5.560	187.051	184.526	25.210	22.840	74973.990	83.936
474.137	21.531	150.920	788.316	336.295	5.537	187.338	184.712	25.361	22.989	74973.917	83.180
474.337	21.556	151.223	789.596	336.529	5.546	187.297	184.660	25.114	22.992	75131.933	82.873
474.538	21.531	151.573	791.430	336.685	5.580	187.419	184.731	25.239	22.992	75134.011	83.596
474.740	21.616	151.920	792.265	337.137	5.589	187.474	184.688	25.420	23.030	75153.950	83.086
474.940	21.507	152.249	793.466	336.911	5.577	187.522	184.832	25.304	23.031	75262.571	83.893
475.140	21.321	152.625	794.862	336.967	5.578	187.349	184.751	25.281	23.030	75257.477	83.975
475.340	21.604	152.879	795.297	337.229	5.575	187.392	184.859	25.268	22.992	75357.438	83.421
475.542	21.308	153.263	796.505	337.911	5.562	187.397	184.838	25.167	22.992	75360.672	83.317
475.741	21.636	153.611	797.407	337.645	5.578	187.393	184.774	24.984	22.992	75366.518	84.205
475.941	21.746	153.862	797.804	337.785	5.581	187.285	184.797	25.339	22.992	75441.269	83.986
476.141	21.617	154.027	799.019	338.069	5.577	187.268	184.816	25.121	22.993	75441.584	83.832
476.342	21.426	154.423	799.219	338.446	5.595	187.413	184.801	25.241	22.992	75470.037	83.821
476.542	21.485	154.605	800.375	338.662	5.574	187.504	184.757	25.169	23.106	75490.324	83.388
476.742	21.440	154.897	801.005	338.789	5.569	187.351	184.807	25.216	23.106	75490.130	83.476
476.942	21.382	155.230	801.757	338.810	5.560	187.237	184.763	25.268	23.105	75537.066	83.383
477.142	21.509	155.450	802.181	339.670	5.565	187.258	184.625	25.243	22.992	75541.141	83.744
477.343	21.557	155.712	802.843	339.505	5.564	187.076	184.455	25.204	22.992	75541.327	83.355
477.543	21.397	155.894	803.240	339.699	5.555	187.169	184.595	25.123	22.992	75572.036	83.317
477.743	21.484	156.145	803.758	339.850	5.559	187.276	184.641	25.114	23.030	75572.279	83.333
477.943	21.566	156.372	803.897	339.684	5.550	187.036	184.519	25.241	23.029	75586.404	83.213
478.143	21.552	156.701	804.884	340.464	5.544	186.987	184.450	25.306	23.029	75595.436	84.457
478.343	21.502	156.869	805.356	340.175	5.526	187.041	184.545	25.025	22.954	75595.783	84.156
478.543	21.330	157.044	806.338	340.951	5.572	186.934	184.395	25.362	22.954	75605.308	83.284
478.743	21.459	157.357	807.154	341.232	5.568	186.769	184.312	25.409	22.956	75605.736	83.596
478.943	21.597	157.515	806.948	341.326	5.558	186.769	184.230	25.134	22.993	75609.763	83.394
479.144	21.485	157.878	807.544	341.380	5.535	186.841	184.253	25.104	22.992	75608.542	84.315
479.345	21.579	157.982	808.560	341.366	5.558	186.749	184.212	25.334	22.957	75608.639	83.481
479.546	21.530	158.252	809.221	341.991	5.531	186.625	184.260	25.191	22.879	75607.079	82.971
479.747	21.646	158.523	809.308	342.256	5.516	186.900	184.363	25.208	22.879	75612.286	84.682
479.947	21.522	158.698	809.509	341.925	5.518	186.574	183.969	25.270	22.859	75606.610	83.755
480.147	21.530	158.808	809.576	342.832	5.528	186.642	184.159	25.213	22.840	75610.087	83.865
480.347	21.640	158.966	810.000	342.109	5.525	186.534	184.035	25.345	22.841	75612.067	83.262
480.548	21.447	159.335	809.487	342.389	5.542	186.771	184.182	25.187	22.891	75611.445	84.562
480.749	21.548	159.259	809.866	342.522	5.541	186.575	183.982	25.331	22.917	75610.151	83.207
480.948	21.640	159.541	810.784	343.078	5.547	186.417	183.918	25.320	22.916	75612.755	83.969
481.148	21.641	159.658	810.621	343.005	5.528	186.483	183.849	25.215	22.916	75608.963	83.750
481.349	21.573	160.001	810.419	342.909	5.508	186.483	183.839	25.213	22.916	75610.434	84.446
481.548	21.477	160.197	811.080	343.371	5.527	186.391	183.894	25.346	22.916	75608.777	84.507
481.748	21.668	160.214	810.304	343.588	5.519	186.270	183.650	25.358	22.842	75608.073	83.437
481.949	21.554	160.365	810.305	343.986	5.524	186.073	183.513	25.394	22.840	75603.756	82.626
482.149	21.542	160.643	809.788	343.887	5.540	186.170	183.595	25.548	22.840	75594.110	83.695
482.350	21.610	160.710	809.110	343.639	5.513	186.218	183.772	25.185	22.728	75597.271	83.607
482.550	21.579	160.953	808.473	344.032	5.538	186.022	183.380	25.407	22.728	75599.648	84.304
482.750	21.531	161.071	807.584	343.974	5.520	186.061	183.481	25.554	22.727	75588.619	83.152
482.950	21.663	161.146	806.743	344.475	5.515	186.347	183.734	25.593	22.803	75593.390	83.443
483.150	21.533	161.415	805.578	343.961	5.524	185.985	183.549	25.395	22.803	75587.795	83.744
483.351	21.580	161.556	804.993	344.521	5.516	186.038	183.556	25.470	22.803	75580.833	82.960
483.551	21.483	161.726	804.276	344.385	5.529	186.005	183.455	25.498	22.803	75583.210	83.860
483.752	21.619	161.772	803.368	344.444	5.512	186.202	183.597	25.287	22.803	75581.448	83.673
483.952	21.505	161.951	802.109	344.568	5.525	185.993	183.505	25.264	22.803	75576.022	83.065
484.152	21.513	162.148	801.064	344.377	5.536	185.998	183.527	25.261	22.803	75578.634	83.904
484.352	21.579	162.148	800.400	344.835	5.515	186.110	183.540	25.281	22.803	75570.209	83.136
484.553	21.438	162.319	800.055	344.925	5.514	185.923	183.523	25.450	22.802	75569.651	83.125
484.754	21.582	162.470	799.597	344.763	5.517	186.100	183.481	25.330	22.803	75565.471	84.265
484.953	21.537	162.632	800.169	344.894	5.536	186.232	183.587	25.479	22.803	75564.508	83.322
485.153	21.531	162.908	800.104	344.761	5.540	186.121	183.588	25.038	22.813	75568.842	84.485
485.353	21.638	162.894	800.345	344.703	5.466	185.837	183.177	25.460	22.841	75567.791	83.662
485.554	21.560	163.125	799.785	345.092	5.453	186.366	183.499	25.352	22.840	75568.009	84.359
485.753	21.645	163.116	800.284	345.167	5.462	186.412	183.628	25.551	22.797	75570.589	83.931
485.953	21.621	163.206	800.036	345.096	5.458	186.496	183.785	25.511	22.765	75571.438	83.673
486.153	21.587	163.467	800.109	343.783	5.502	186.835	183.958	25.235	22.764	75575.133	84.940
486.354	21.638	163.586	798.993	344.070	5.487	186.539	183.753	25.467	22.700	75603.343	84.397
486.555	21.536	163.734	799.076	344.049	5.479	186.543	183.672	25.508	22.689	75597.263	84.106
486.755	21.593	163.779	797.885	343.437	5.482	186.583	183.622	25.566	22.689	75603.448	83.607
486.957	21.467	163.912	797.335	343.163	5.440	186.438	183.679	25.398	22.764	75616.401	83.569
487.156	21.549	164.133	795.631	342.835	5.427	186.521	183.746	25.549	22.765	75621.212	84.754
487.357	21.589	164.084	794.526	342.662	5.432	186.493	183.529	25.502	22.765	75634.950	83.997
487.556	21.599	164.243	793.346	342.452	5.411	186.685	183.801	24.981	22.728	75643.067	84.304
487.756	21.557	164.276	792.273	342.699	5.438	186.524	183.790	25.261	22.727	75639.243	83.372
487.957	21.526	164.490	791.050	342.721	5.441	186.684	183.869	25.204	22.727	75657.063	83.536
488.156	21.485	164.723	790.746	342.346	5.489	186.748	183.956	25.237	22.651	75660.370	84.627
488.356	21.553	164.739	788.830	341.676	5.468	186.499	183.771	25.106	22.651	75664.923	84.156
488.556	21.532	164.821	787.121	341.982	5.455	186.411	183.695	25.292	22.651	75671.351	84.150
488.757	21.560	165.052	786.412	341.915	5.493	186.486	183.739	25.057	22.651	75673.040	84.830
488.957	21.519	165.116	785.260	341.776	5.491	186.620	183.820	25.092	22.650	75674.989	84.238
489.157	21.496	165.104	784.128	341.574	5.488	186.453	183.705	25.103	22.634	75673.728	83.509
489.358	21.645	165.294	783.518	341.948	5.462	186.036	183.282	25.078	22.576	75678.919	84.403
489.559	21.564	165.463	782.256	340.978	5.465	186.132	183.307	25.209	22.576	75680.107	84.869
489.759	21.600	165.531	780.801	341.199	5.447	186.065	183.317	25.094	22.600	75679.622	83.914
489.959	21.602	165.679	780.566	341.177	5.436	185.975	183.122	25.007	22.614	75667.947	84.430
490.160	21.551	165.772	778.811	342.063	5.443	186.010	183.173	24.930	22.613	75659.877	84.200
490.359	21.500	165.779	777.662	341.359	5.420	185.846	183.153	24.993	22.580	75658.228	83.119
490.560	21.541	165.933	776.674	341.688	5.412	185.773	183.001	25.155	22.575	75642.598	84.008
490.761	21.691	165.951	776.278	341.652	5.451	185.677	183.063	25.165	22.576	75645.323	83.980
490.961	21.521	166.100	775.077	341.037	5.471	185.652	182.812	25.035	22.688	75636.211	83.827
491.161	21.524	166.256	774.088	341.596	5.460	185.794	183.109	24.928	22.688	75622.886	83.969
491.361	21.624	166.205	773.091	341.268	5.453	185.819	183.097	25.017	22.689	75626.985	83.065
491.561	21.622	166.302	772.405	341.456	5.459	185.481	182.728	24.999	22.576	75618.156	83.059
491.761	21.637	166.357	772.165	340.885	5.431	185.226	182.537	24.609	22.576	75618.439	83.306
491.962	21.562	166.522	771.514	341.316	5.411	184.831	182.103	24.872	22.575	75615.682	83.273
492.162	21.617	166.651	771.547	341.300	5.413	184.562	181.900	24.833	22.575	75591.425	83.772
492.362	21.622	166.677	771.103	341.402	5.420	184.183	181.442	24.642	22.576	75591.191	83.054
492.563	21.589	166.835	770.805	341.225	5.395	183.956	181.282	24.788	22.564	75566.691	83.070
492.763	21.644	166.823	769.524	341.048	5.377	183.446	180.713	24.688	22.538	75542.726	82.648
492.965	21.632	166.982	769.165	340.858	5.373	183.264	180.528	24.462	22.538	75541.109	82.829
493.164	21.600	167.023	768.923	341.337	5.383	182.943	180.183	24.677	22.437	75473.199	82.670
493.364	21.525	167.031	767.968	341.822	5.369	182.600	179.890	24.493	22.386	75467.862	81.491
493.564	21.620	167.113	767.365	341.071	5.346	182.319	179.662	24.357	22.386	75470.288	81.979
493.765	21.644	167.046	766.874	341.198	5.327	182.130	179.434	24.344	22.311	75396.354	81.688
493.966	21.650	167.043	766.201	341.311	5.323	181.881	179.147	24.497	22.311	75395.941	81.085
494.165	21.604	167.212	765.800	341.535	5.299	181.497	178.856	24.441	22.311	75328.799	81.984
494.366	21.547	167.143	765.983	341.496	5.298	181.031	178.422	24.354	22.160	75306.144	80.076
494.565	21.638	167.196	764.808	341.421	5.278	180.678	177.971	24.108	22.160	75312.175	80.262
494.765	21.596	167.351	764.250	341.492	5.276	178.748	176.080	23.746	22.160	75222.927	80.257
494.965	21.470	167.355	764.305	341.468	5.251	176.999	174.257	23.593	22.159	75216.507	78.656
495.165	21.604	167.253	763.241	341.796	5.249	171.666	168.778	22.621	22.160	75160.078	75.771
495.365	21.432	167.382	762.232	341.150	5.095	165.426	162.657	21.573	22.155	75038.755	73.495
495.566	21.478	167.342	759.462	340.882	4.926	158.984	156.319	20.740	21.175	75041.383	70.874
495.766	21.602	167.108	755.901	340.650	4.710	152.694	150.025	19.518	21.176	74463.923	68.143
495.966	21.532	167.074	751.669	339.855	4.499	146.734	144.241	18.311	19.141	74456.961	67.403
496.167	21.555	166.763	746.989	340.208	4.305	140.694	138.382	17.470	17.048	74456.832	65.911
496.367	21.588	166.331	742.707	339.691	4.136	135.172	132.895	16.749	17.047	73363.386	64.825
496.567	21.594	166.328	737.623	339.084	3.976	130.439	128.075	16.202	14.421	73363.078	63.093
496.767	21.590	165.943	732.991	338.646	3.787	126.388	124.187	15.638	14.360	72434.027	61.996
496.967	21.557	165.698	726.967	338.847	3.659	122.596	120.408	15.149	14.360	71912.810	61.031
497.168	21.562	165.358	720.812	338.271	3.550	119.056	117.219	14.892	14.208	71911.330	59.682
497.367	21.538	164.956	714.911	337.958	3.441	115.552	113.619	14.043	14.208	70302.537	58.256
497.568	21.644	164.546	709.244	337.093	3.348	112.100	110.153	13.834	14.141	70307.413	57.812
497.768	21.709	164.048	703.608	336.568	3.261	108.974	107.237	13.055	13.869	69983.070	55.355
497.968	21.761	163.608	697.561	336.457	3.178	105.963	104.342	12.710	13.868	68635.553	54.620
498.168	21.734	163.104	692.491	336.160	3.091	103.343	101.742	12.198	12.910	68632.521	52.778
498.370	21.799	162.612	687.322	335.319	3.012	100.538	98.943	11.582	12.583	67024.156	52.092
498.569	21.755	162.223	684.080	334.788	2.914	97.717	96.144	11.323	12.583	66952.963	52.098
498.770	21.858	161.604	679.723	334.235	2.843	94.837	93.345	10.816	13.454	66952.963	50.655
498.969	21.743	161.078	676.791	333.989	2.765	92.195	90.843	10.580	13.454	65274.157	48.736
499.170	21.747	160.593	673.020	333.936	2.686	89.594	88.258	10.204	13.453	65271.829	48.884
499.369	21.910	159.964	669.862	332.985	2.603	87.199	85.725	10.012	13.340	64244.902	48.275
499.570	21.849	159.395	666.640	332.681	2.552	85.090	83.593	9.836	13.341	63609.889	48.243
499.770	21.835	158.837	662.852	332.187	2.459	82.549	81.246	9.291	13.069	63607.213	47.003
499.970	21.911	158.334	659.032	331.778	2.405	80.677	79.334	9.009	12.810	61966.579	47.497
500.171	21.894	157.726	656.073	330.851	2.341	78.749	77.475	9.088	12.808	61958.890	46.680
500.371	21.918	157.079	652.748	331.429	2.278	76.709	75.545	8.966	12.810	61854.975	46.652
500.571	21.949	156.623	650.322	330.012	2.198	74.846	73.772	8.710	12.812	60372.979	46.954
500.771	21.936	155.919	646.729	330.003	2.149	73.168	72.082	8.397	12.808	60367.230	45.846
500.973	21.956	155.464	644.975	329.583	2.100	71.220	70.139	8.027	12.658	59109.034	45.490
501.172	22.016	154.760	642.012	329.207	2.031	69.368	68.281	7.744	12.659	58863.088	44.250
501.374	21.918	154.300	639.116	329.042	1.973	67.838	66.755	7.788	12.582	58860.800	44.755
501.573	21.988	153.703	635.997	328.237	1.956	66.500	65.383	7.937	12.431	57393.423	44.420
501.773	22.101	153.116	633.397	327.637	1.914	65.107	64.058	7.789	12.431	57394.943	44.119
501.973	22.151	152.348	629.970	327.770	1.867	63.547	62.352	7.438	12.290	56862.608	42.638
502.173	22.183	151.751	627.180	326.865	1.827	62.321	61.175	7.529	12.281	55969.263	42.748
502.373	22.071	151.041	624.368	326.626	1.795	61.141	60.029	7.235	12.280	55965.220	41.338
502.574	22.123	150.535	621.389	326.063	1.754	59.848	58.749	7.301	12.999	54606.674	41.964
502.773	22.192	149.874	618.596	325.928	1.730	58.666	57.582	6.979	12.999	54595.831	41.097
502.973	22.192	149.332	616.233	325.128	1.693	57.608	56.566	7.043	12.962	54596.494	41.382
503.173	22.122	148.640	612.820	325.206	1.659	56.527	55.541	7.045	12.734	53274.447	40.039
503.373	22.127	148.028	610.469	324.334	1.632	55.402	54.469	6.995	12.734	53275.676	39.726
503.574	22.235	147.306	607.026	324.008	1.593	54.069	53.168	6.547	12.180	52279.709	38.377
503.775	22.173	146.787	604.496	323.508	1.572	53.168	52.193	6.302	12.091	52021.894	38.048
503.975	22.186	146.112	602.044	323.888	1.542	52.298	51.444	6.211	12.090	52018.692	37.571
504.174	22.242	145.480	599.158	322.982	1.522	51.417	50.554	6.301	12.166	50829.497	37.105
504.374	22.214	144.888	596.885	322.987	1.487	50.665	49.906	6.198	12.166	50826.958	37.028
504.574	22.294	144.405	594.538	321.909	1.471	50.061	49.246	6.170	12.167	50588.856	37.708
504.774	22.190	143.778	591.808	321.915	1.440	49.558	48.757	6.210	12.242	49712.870	37.204
504.974	22.324	143.190	589.662	321.900	1.433	48.993	48.295	6.024	12.242	49715.094	37.138
505.175	22.223	142.558	588.622	321.870	1.418	48.537	47.798	6.006	12.267	48704.702	36.189
505.374	22.278	142.109	586.249	321.664	1.396	48.304	47.513	5.950	12.280	48697.684	36.639
505.574	22.234	141.544	585.120	321.189	1.371	47.904	47.160	5.910	12.280	48694.264	36.387
505.775	22.337	140.934	583.473	321.424	1.371	47.393	46.696	5.757	11.865	47792.211	35.312
505.975	22.319	140.487	582.585	321.526	1.375	47.119	46.451	5.699	11.863	47793.642	35.970
506.175	22.445	139.861	582.206	321.448	1.361	46.910	46.213	5.758	11.863	47403.410	35.197
506.375	22.450	139.325	581.547	321.728	1.345	46.729	46.046	5.895	11.486	47016.833	35.915
506.575	22.459	138.885	580.559	321.153	1.336	46.431	45.773	5.949	11.485	47018.272	35.761
506.775	22.504	138.329	580.270	321.463	1.343	46.292	45.579	5.811	11.471	46356.319	35.493
506.976	22.461	137.816	579.907	321.200	1.324	46.139	45.428	5.947	11.447	46354.394	35.712
507.175	22.386	137.266	579.411	321.220	1.313	45.935	45.263	5.797	11.447	46331.957	34.818
507.375	22.414	136.730	580.031	321.467	1.317	45.751	45.085	5.831	11.520	45790.146	34.742
507.575	22.515	136.317	579.514	321.035	1.317	45.754	45.069	5.816	11.523	45794.124	35.542
507.775	22.439	135.721	579.607	321.456	1.312	45.596	44.944	5.746	11.522	45436.833	33.974
507.975	22.451	135.178	579.592	321.024	1.302	45.476	44.793	5.892	11.674	45322.795	34.402
508.176	22.543	134.851	579.101	321.109	1.310	45.358	44.675	5.766	11.674	45326.724	35.027
508.376	22.561	134.296	580.138	321.510	1.296	45.248	44.599	5.729	11.641	44948.031	34.593
508.577	22.561	133.884	579.814	321.600	1.278	45.245	44.575	5.723	11.485	44946.575	34.807
508.777	22.533	133.283	579.543	321.652	1.278	45.120	44.405	5.713	11.485	44866.634	33.502
508.977	22.622	132.947	580.641	321.617	1.283	45.044	44.402	5.837	11.750	44636.835	34.659
509.178	22.569	132.332	580.575	321.473	1.279	45.066	44.404	5.960	11.826	44631.224	33.798
509.379	22.562	131.894	580.547	321.973	1.267	45.033	44.345	5.756	11.826	44382.561	33.859
509.579	22.641	131.461	580.753	321.796	1.265	45.033	44.366	5.738	12.128	44378.786	33.881
509.780	22.602	131.132	580.578	321.549	1.274	44.946	44.291	5.665	12.128	44380.548	34.720
509.980	22.642	130.704	580.550	321.126	1.276	44.990	44.324	5.857	12.132	44177.019	34.763
510.180	22.674	130.276	580.071	321.590	1.274	44.924	44.265	5.792	12.204	44176.057	34.703
510.382	22.707	129.822	580.213	321.436	1.273	44.965	44.302	5.904	12.204	44082.815	34.555
510.581	22.720	129.469	580.783	320.988	1.272	44.998	44.353	5.926	11.946	44017.338	34.369
510.781	22.672	129.012	581.038	321.869	1.283	44.864	44.204	5.846	11.787	44014.945	34.193
510.982	22.759	128.496	581.097	321.274	1.286	44.840	44.199	5.729	11.787	43886.361	33.634
511.184	22.680	128.036	580.845	321.524	1.278	44.872	44.245	5.723	11.863	43880.839	33.190
511.384	22.764	127.739	581.727	321.541	1.274	44.993	44.374	5.926	11.863	43870.901	33.354
511.583	22.759	127.204	581.508	321.572	1.258	45.037	44.358	5.859	11.864	43783.885	33.382
511.783	22.758	126.860	582.240	321.878	1.287	44.951	44.300	5.801	12.053	43781.298	32.915
511.983	22.672	126.596	582.230	321.950	1.275	45.032	44.387	5.922	12.052	43717.770	33.568
512.183	22.781	126.164	582.876	322.052	1.266	45.016	44.388	5.877	11.872	43707.816	33.085
512.383	22.883	125.901	582.662	321.678	1.263	44.896	44.236	5.811	11.637	43710.121	34.018
512.583	22.743	125.552	582.743	321.950	1.269	44.887	44.264	5.893	11.636	43654.040	33.831
512.784	22.820	125.208	582.435	322.003	1.257	45.000	44.343	5.900	11.562	43656.150	34.253
512.983	22.870	124.728	582.077	321.813	1.265	44.992	44.351	5.758	11.561	43642.154	33.486
513.184	22.867	124.327	582.346	321.890	1.264	45.141	44.502	5.944	11.561	43614.049	32.904
513.383	22.861	124.023	583.067	321.642	1.274	45.085	44.452	5.828	11.486	43616.135	33.392
513.584	22.870	123.632	582.715	322.088	1.281	44.754	44.080	5.779	11.486	43583.946	32.537
513.785	22.846	123.411	582.741	322.119	1.466	38.185	37.342	5.019	11.511	43583.962	32.137
513.985	22.892	122.997	581.164	320.884	1.377	33.722	32.883	4.417	11.599	43586.776	31.347
514.185	22.884	122.738	577.018	320.701	1.247	30.503	29.703	3.951	11.599	43345.423	29.790
514.387	22.916	122.268	570.357	319.571	1.145	27.559	26.848	3.516	8.885	43345.399	28.249
514.587	22.841	121.888	563.729	318.576	1.055	25.045	24.383	3.115	1.302	42546.727	26.483
514.787	22.912	121.545	556.301	318.261	0.978	23.097	22.421	2.839	1.300	42103.083	26.713
514.987	22.846	121.053	548.035	317.140	0.861	21.130	20.523	2.547	1.300	42100.568	24.410
515.187	22.840	120.795	539.851	315.641	0.800	19.474	18.895	2.328	1.300	40179.464	25.403
515.387	22.912	120.423	532.659	314.798	0.751	18.006	17.491	2.151	1.300	40179.294	24.777
515.587	22.858	119.911	524.683	314.422	0.695	16.734	16.208	1.955	-0.209	39827.873	23.445
515.787	22.935	119.641	517.597	313.155	0.656	15.536	15.059	1.768	-0.210	37910.286	23.818
515.987	22.978	119.101	510.042	312.115	0.605	14.453	13.989	1.615	-0.210	37909.186	22.864
516.188	22.956	118.774	503.891	310.793	0.559	13.494	13.051	1.483	-0.211	35708.064	23.001
516.388	23.026	118.293	496.916	309.531	0.519	12.667	12.210	1.355	-0.211	35520.715	22.518
516.588	22.905	117.969	490.804	309.072	0.496	11.891	11.473	1.276	-0.211	35516.154	21.679
516.790	22.914	117.513	483.940	308.275	0.470	11.177	10.785	1.153	-0.211	33145.018	21.202
516.989	22.957	117.222	478.287	306.974	0.445	10.543	10.152	1.082	-0.211	33143.878	21.915
517.189	22.958	116.811	472.549	306.098	0.419	9.974	9.600	1.008	-0.211	32235.833	21.191
517.390	23.037	116.326	466.389	304.847	0.403	9.446	9.085	0.942	-0.211	30862.515	20.577
517.589	23.068	115.913	461.301	304.660	0.378	8.983	8.611	0.881	-0.211	30861.092	20.698
517.789	23.077	115.534	455.972	303.726	0.354	8.505	8.161	0.806	-0.211	28729.563	19.820
517.991	23.012	115.140	450.471	301.974	0.349	8.092	7.739	0.755	-0.212	28709.106	19.902
518.191	23.046	114.819	445.754	301.739	0.326	7.707	7.366	0.719	-0.211	28713.723	20.621
518.391	23.008	114.459	440.967	300.837	0.310	7.334	7.018	0.663	-0.212	26720.819	20.237
518.592	23.059	114.105	436.371	300.231	0.297	7.008	6.697	0.636	-0.212	26718.871	19.667
518.791	23.132	113.601	430.954	299.321	0.282	6.685	6.371	0.582	-0.211	25600.595	19.502
518.991	23.125	113.432	427.154	298.502	0.271	6.413	6.083	0.562	-0.211	24892.101	19.996
519.191	23.152	112.927	422.800	297.498	0.259	6.142	5.821	0.531	-0.211	24886.724	19.085
519.391	23.190	112.610	418.086	297.216	0.247	5.890	5.590	0.507	-0.211	23222.852	18.723
519.592	23.155	112.376	413.783	296.171	0.240	5.651	5.341	0.463	-0.212	23220.799	19.168
519.791	23.250	112.088	409.713	295.028	0.233	5.415	5.145	0.443	-0.211	23028.137	19.705
519.991	23.330	111.631	406.331	294.636	0.215	5.215	4.923	0.416	-0.211	21704.213	18.586
520.192	23.311	111.458	402.203	293.332	0.206	5.006	4.731	0.403	-0.212	21703.777	18.882
520.391	23.383	110.955	398.181	293.366	0.200	4.822	4.535	0.376	-0.211	20377.379	18.323
520.592	23.415	110.763	395.028	292.160	0.200	4.673	4.400	0.372	-0.211	20333.847	18.888
520.794	23.445	110.468	391.714	291.726	0.184	4.521	4.257	0.343	-0.211	20331.833	18.833
520.993	23.427	110.085	387.686	290.746	0.181	4.369	4.095	0.333	-0.211	19087.932	18.257
521.193	23.512	109.866	385.145	290.334	0.174	4.224	3.965	0.323	-0.211	19090.512	19.020
521.393	23.503	109.504	381.334	289.725	0.170	4.094	3.832	0.309	-0.211	18673.533	18.170
521.593	23.491	109.333	378.742	289.097	0.160	3.971	3.706	0.293	-0.212	17959.460	18.488
521.793	23.579	109.019	375.290	288.460	0.154	3.840	3.573	0.281	-0.211	17963.527	18.416
521.993	23.495	108.815	373.006	287.654	0.152	3.720	3.452	0.269	-0.212	16954.106	18.515
522.194	23.548	108.555	369.589	287.574	0.144	3.600	3.350	0.261	-0.212	16941.768	18.372
522.395	23.625	108.239	366.395	286.571	0.141	3.502	3.239	0.252	-0.212	16945.277	18.647
522.594	23.595	108.044	363.475	285.715	0.137	3.390	3.153	0.241	-0.212	16014.860	18.592
522.794	23.635	107.630	360.692	285.793	0.133	3.288	3.067	0.226	-0.212	16012.272	17.320
522.994	23.679	107.523	358.712	284.718	0.130	3.206	2.982	0.222	-0.211	15559.701	18.477
523.195	23.659	107.222	355.651	284.664	0.125	3.125	2.893	0.219	-0.212	15169.753	17.835
523.394	23.707	106.877	352.636	283.633	0.122	3.038	2.813	0.209	-0.212	15168.241	17.533
523.595	23.725	106.632	350.182	283.267	0.119	2.960	2.732	0.200	-0.212	14398.418	17.501
523.794	23.713	106.438	347.906	282.323	0.114	2.893	2.658	0.198	-0.212	14399.243	17.539
523.996	23.837	106.196	345.116	281.448	0.111	2.808	2.575	0.190	-0.211	14275.170	18.060
524.200	23.867	105.832	342.521	281.027	0.109	2.732	2.522	0.181	-0.211	13699.295	17.341
524.399	23.795	105.673	340.623	280.485	0.106	2.682	2.454	0.179	-0.211	13697.969	17.440
